EEG1,EEG2,Acc_X,Acc_Y,Acc_Z,User_Number
866.9046631,842.2299194,-531.2508545,859.3763428,238.2816162,1
845.5198975,822.4901733,-519.5320435,855.4700928,246.0941315,1
860.324707,835.6500244,-519.5320435,855.4700928,246.0941315,1
860.324707,835.6500244,-542.9696045,851.5638428,238.2816162,1
835.6500244,837.2949829,-535.1571045,859.3763428,238.2816162,1
852.0997925,838.9400024,-507.8132935,855.4700928,242.1878815,1
852.0997925,838.9400024,-519.5320435,859.3763428,242.1878815,1
853.744812,842.2299194,-519.5320435,859.3763428,242.1878815,1
825.7801514,840.5849609,-519.5320435,859.3763428,242.1878815,1
825.7801514,840.5849609,-542.9696045,863.2825928,234.3753662,1
850.454834,842.2299194,-546.8758545,859.3763428,226.562851,1
814.2652588,848.8098755,-523.4382935,863.2825928,238.2816162,1
848.8098755,843.874939,-527.3446045,847.6575928,242.1878815,1
834.0050049,843.874939,-523.4382935,859.3763428,242.1878815,1
822.4901733,845.5198975,-523.4382935,863.2825928,242.1878815,1
850.454834,845.5198975,-523.4382935,863.2825928,242.1878815,1
852.0997925,847.164856,-523.4382935,863.2825928,246.0941315,1
834.0050049,848.8098755,-523.4382935,851.5638428,250.0003967,1
834.0050049,848.8098755,-519.5320435,851.5638428,253.9066467,1
860.324707,847.164856,-523.4382935,851.5638428,253.9066467,1
857.034729,848.8098755,-527.3446045,855.4700928,253.9066467,1
857.034729,848.8098755,-527.3446045,863.2825928,253.9066467,1
830.7150879,840.5849609,-527.3446045,859.3763428,253.9066467,1
850.454834,845.5198975,-527.3446045,855.4700928,257.8128967,1
853.744812,845.5198975,-527.3446045,855.4700928,257.8128967,1
827.4251099,842.2299194,-515.6257935,847.6575928,261.7191467,1
845.5198975,847.164856,-519.5320435,843.7513428,261.7191467,1
843.874939,843.874939,-527.3446045,847.6575928,269.5316772,1
855.3897705,842.2299194,-527.3446045,847.6575928,269.5316772,1
863.6146851,838.9400024,-519.5320435,851.5638428,273.4379272,1
847.164856,840.5849609,-500.0007935,847.6575928,289.0629578,1
838.9400024,835.6500244,-539.0633545,867.1888428,265.6254272,1
853.744812,837.2949829,-511.7195435,820.3137817,292.9692078,1
845.5198975,842.2299194,-515.6257935,835.9387817,296.8754578,1
837.2949829,837.2949829,-515.6257935,835.9387817,296.8754578,1
840.5849609,838.9400024,-496.0945129,847.6575928,328.1255188,1
829.0700684,829.0700684,-503.9070435,859.3763428,320.3129883,1
827.4251099,855.3897705,-503.9070435,859.3763428,320.3129883,1
809.3303223,870.1945801,-503.9070435,859.3763428,320.3129883,1
792.8805542,878.4194946,-523.4382935,835.9387817,316.4067383,1
812.6203003,868.5496216,-535.1571045,859.3763428,312.5004883,1
825.7801514,837.2949829,-550.7821045,835.9387817,304.6879883,1
847.164856,847.164856,-570.3134155,816.4075317,292.9692078,1
847.164856,847.164856,-554.6883545,820.3137817,292.9692078,1
832.3600464,845.5198975,-531.2508545,839.8450928,304.6879883,1
847.164856,845.5198975,-531.2508545,839.8450928,304.6879883,1
870.1945801,848.8098755,-511.7195435,851.5638428,316.4067383,1
819.2001953,858.6797485,-507.8132935,843.7513428,320.3129883,1
817.5552368,845.5198975,-503.9070435,835.9387817,328.1255188,1
825.7801514,837.2949829,-519.5320435,843.7513428,296.8754578,1
931.0588989,858.6797485,-500.0007935,855.4700928,308.5942383,1
878.4194946,845.5198975,-515.6257935,847.6575928,308.5942383,1
773.1407471,830.7150879,-511.7195435,847.6575928,312.5004883,1
773.1407471,837.2949829,-503.9070435,843.7513428,300.7817078,1
773.1407471,837.2949829,-519.5320435,843.7513428,304.6879883,1
825.7801514,843.874939,-519.5320435,843.7513428,312.5004883,1
773.1407471,830.7150879,-515.6257935,851.5638428,308.5942383,1
931.0588989,863.6146851,-515.6257935,851.5638428,308.5942383,1
845.5198975,834.0050049,-527.3446045,839.8450928,292.9692078,1
792.8805542,764.9158325,-496.0945129,843.7513428,328.1255188,1
792.8805542,764.9158325,-484.3757629,839.8450928,339.8442688,1
792.8805542,764.9158325,-500.0007935,808.5950317,347.6567993,1
950.798645,840.5849609,-550.7821045,843.7513428,269.5316772,1
740.2411499,829.0700684,-531.2508545,824.2200317,238.2816162,1
792.8805542,835.6500244,-531.2508545,824.2200317,238.2816162,1
845.5198975,852.0997925,-523.4382935,839.8450928,250.0003967,1
950.798645,868.5496216,-539.0633545,832.0325317,257.8128967,1
950.798645,868.5496216,-550.7821045,835.9387817,257.8128967,1
792.8805542,838.9400024,-550.7821045,835.9387817,257.8128967,1
792.8805542,842.2299194,-550.7821045,835.9387817,257.8128967,1
845.5198975,845.5198975,-539.0633545,847.6575928,269.5316772,1
824.1351318,850.454834,-519.5320435,875.0013428,285.1567078,1
840.5849609,848.8098755,-531.2508545,843.7513428,285.1567078,1
853.744812,847.164856,-539.0633545,835.9387817,281.2504272,1
845.5198975,843.874939,-519.5320435,851.5638428,277.3441772,1
838.9400024,848.8098755,-511.7195435,847.6575928,285.1567078,1
838.9400024,848.8098755,-507.8132935,843.7513428,292.9692078,1
850.454834,843.874939,-519.5320435,847.6575928,296.8754578,1
840.5849609,843.874939,-519.5320435,847.6575928,296.8754578,1
840.5849609,845.5198975,-546.8758545,832.0325317,300.7817078,1
838.9400024,845.5198975,-546.8758545,832.0325317,300.7817078,1
848.8098755,847.164856,-531.2508545,843.7513428,292.9692078,1
850.454834,845.5198975,-511.7195435,847.6575928,300.7817078,1
843.874939,848.8098755,-519.5320435,851.5638428,300.7817078,1
843.874939,852.0997925,-527.3446045,847.6575928,300.7817078,1
845.5198975,842.2299194,-527.3446045,847.6575928,300.7817078,1
845.5198975,842.2299194,-527.3446045,832.0325317,296.8754578,1
850.454834,840.5849609,-527.3446045,832.0325317,296.8754578,1
837.2949829,840.5849609,-527.3446045,832.0325317,296.8754578,1
840.5849609,845.5198975,-503.9070435,859.3763428,285.1567078,1
837.2949829,843.874939,-503.9070435,859.3763428,285.1567078,1
829.0700684,842.2299194,-523.4382935,843.7513428,292.9692078,1
829.0700684,842.2299194,-531.2508545,839.8450928,289.0629578,1
840.5849609,842.2299194,-531.2508545,839.8450928,289.0629578,1
843.874939,848.8098755,-515.6257935,843.7513428,296.8754578,1
845.5198975,842.2299194,-519.5320435,843.7513428,292.9692078,1
850.454834,830.7150879,-515.6257935,855.4700928,289.0629578,1
850.454834,830.7150879,-523.4382935,847.6575928,292.9692078,1
840.5849609,842.2299194,-523.4382935,847.6575928,292.9692078,1
842.2299194,843.874939,-523.4382935,847.6575928,292.9692078,1
842.2299194,838.9400024,-519.5320435,863.2825928,285.1567078,1
838.9400024,843.874939,-519.5320435,863.2825928,285.1567078,1
838.9400024,843.874939,-515.6257935,855.4700928,289.0629578,1
843.874939,843.874939,-515.6257935,855.4700928,289.0629578,1
838.9400024,842.2299194,-523.4382935,843.7513428,289.0629578,1
838.9400024,842.2299194,-531.2508545,843.7513428,285.1567078,1
848.8098755,840.5849609,-531.2508545,843.7513428,285.1567078,1
840.5849609,842.2299194,-515.6257935,847.6575928,292.9692078,1
847.164856,843.874939,-527.3446045,835.9387817,289.0629578,1
840.5849609,842.2299194,-527.3446045,835.9387817,289.0629578,1
842.2299194,843.874939,-527.3446045,847.6575928,292.9692078,1
842.2299194,843.874939,-527.3446045,839.8450928,296.8754578,1
838.9400024,843.874939,-527.3446045,839.8450928,296.8754578,1
837.2949829,842.2299194,-527.3446045,839.8450928,296.8754578,1
840.5849609,847.164856,-511.7195435,851.5638428,292.9692078,1
845.5198975,845.5198975,-511.7195435,851.5638428,292.9692078,1
835.6500244,842.2299194,-523.4382935,847.6575928,296.8754578,1
848.8098755,853.744812,-515.6257935,843.7513428,292.9692078,1
837.2949829,852.0997925,-515.6257935,843.7513428,292.9692078,1
837.2949829,852.0997925,-523.4382935,847.6575928,292.9692078,1
840.5849609,850.454834,-523.4382935,847.6575928,292.9692078,1
835.6500244,843.874939,-515.6257935,851.5638428,292.9692078,1
843.874939,842.2299194,-519.5320435,843.7513428,292.9692078,1
835.6500244,845.5198975,-519.5320435,843.7513428,292.9692078,1
842.2299194,842.2299194,-523.4382935,847.6575928,304.6879883,1
842.2299194,842.2299194,-523.4382935,851.5638428,300.7817078,1
838.9400024,847.164856,-523.4382935,847.6575928,289.0629578,1
838.9400024,847.164856,-519.5320435,843.7513428,292.9692078,1
843.874939,845.5198975,-515.6257935,839.8450928,296.8754578,1
829.0700684,843.874939,-515.6257935,839.8450928,296.8754578,1
830.7150879,845.5198975,-539.0633545,843.7513428,289.0629578,1
830.7150879,845.5198975,-535.1571045,839.8450928,289.0629578,1
842.2299194,843.874939,-527.3446045,839.8450928,292.9692078,1
840.5849609,842.2299194,-527.3446045,839.8450928,292.9692078,1
837.2949829,842.2299194,-535.1571045,843.7513428,292.9692078,1
827.4251099,848.8098755,-531.2508545,839.8450928,292.9692078,1
827.4251099,848.8098755,-523.4382935,835.9387817,292.9692078,1
840.5849609,843.874939,-523.4382935,835.9387817,292.9692078,1
850.454834,845.5198975,-523.4382935,835.9387817,292.9692078,1
850.454834,848.8098755,-531.2508545,843.7513428,292.9692078,1
848.8098755,845.5198975,-531.2508545,843.7513428,289.0629578,1
863.6146851,829.0700684,-531.2508545,839.8450928,289.0629578,1
863.6146851,829.0700684,-535.1571045,839.8450928,296.8754578,1
848.8098755,832.3600464,-535.1571045,839.8450928,296.8754578,1
880.0644531,814.2652588,-535.1571045,839.8450928,296.8754578,1
901.4492188,797.8154907,-535.1571045,843.7513428,289.0629578,1
894.8693237,796.1704712,-535.1571045,843.7513428,289.0629578,1
871.8395996,819.2001953,-523.4382935,839.8450928,285.1567078,1
871.8395996,819.2001953,-535.1571045,832.0325317,277.3441772,1
865.2596436,834.0050049,-535.1571045,832.0325317,277.3441772,1
857.034729,832.3600464,-535.1571045,839.8450928,265.6254272,1
845.5198975,840.5849609,-535.1571045,835.9387817,269.5316772,1
843.874939,842.2299194,-527.3446045,847.6575928,269.5316772,1
835.6500244,848.8098755,-527.3446045,847.6575928,269.5316772,1
835.6500244,848.8098755,-539.0633545,847.6575928,269.5316772,1
840.5849609,845.5198975,-539.0633545,847.6575928,269.5316772,1
843.874939,847.164856,-531.2508545,855.4700928,265.6254272,1
842.2299194,847.164856,-531.2508545,855.4700928,265.6254272,1
832.3600464,848.8098755,-527.3446045,835.9387817,269.5316772,1
832.3600464,848.8098755,-542.9696045,847.6575928,269.5316772,1
827.4251099,853.744812,-531.2508545,847.6575928,269.5316772,1
827.4251099,853.744812,-535.1571045,843.7513428,261.7191467,1
827.4251099,852.0997925,-535.1571045,843.7513428,261.7191467,1
838.9400024,857.034729,-535.1571045,843.7513428,261.7191467,1
840.5849609,850.454834,-535.1571045,851.5638428,265.6254272,1
837.2949829,848.8098755,-542.9696045,847.6575928,261.7191467,1
838.9400024,845.5198975,-531.2508545,855.4700928,265.6254272,1
838.9400024,845.5198975,-535.1571045,847.6575928,269.5316772,1
837.2949829,847.164856,-535.1571045,843.7513428,269.5316772,1
837.2949829,847.164856,-539.0633545,839.8450928,277.3441772,1
837.2949829,847.164856,-535.1571045,847.6575928,269.5316772,1
834.0050049,845.5198975,-535.1571045,847.6575928,269.5316772,1
840.5849609,843.874939,-535.1571045,847.6575928,269.5316772,1
843.874939,848.8098755,-535.1571045,843.7513428,269.5316772,1
845.5198975,845.5198975,-535.1571045,843.7513428,269.5316772,1
848.8098755,845.5198975,-539.0633545,835.9387817,273.4379272,1
850.454834,847.164856,-531.2508545,843.7513428,269.5316772,1
852.0997925,848.8098755,-523.4382935,847.6575928,269.5316772,1
843.874939,847.164856,-542.9696045,847.6575928,269.5316772,1
845.5198975,848.8098755,-542.9696045,847.6575928,269.5316772,1
840.5849609,847.164856,-531.2508545,843.7513428,273.4379272,1
840.5849609,847.164856,-527.3446045,843.7513428,269.5316772,1
850.454834,852.0997925,-527.3446045,843.7513428,269.5316772,1
848.8098755,848.8098755,-535.1571045,843.7513428,273.4379272,1
832.3600464,847.164856,-535.1571045,843.7513428,273.4379272,1
840.5849609,848.8098755,-535.1571045,835.9387817,277.3441772,1
840.5849609,848.8098755,-539.0633545,835.9387817,273.4379272,1
843.874939,848.8098755,-539.0633545,835.9387817,273.4379272,1
829.0700684,848.8098755,-539.0633545,843.7513428,277.3441772,1
848.8098755,840.5849609,-542.9696045,839.8450928,269.5316772,1
852.0997925,830.7150879,-542.9696045,839.8450928,269.5316772,1
845.5198975,830.7150879,-535.1571045,843.7513428,269.5316772,1
845.5198975,830.7150879,-535.1571045,843.7513428,273.4379272,1
842.2299194,842.2299194,-539.0633545,847.6575928,273.4379272,1
842.2299194,842.2299194,-542.9696045,843.7513428,269.5316772,1
842.2299194,842.2299194,-539.0633545,839.8450928,273.4379272,1
847.164856,840.5849609,-539.0633545,839.8450928,273.4379272,1
850.454834,843.874939,-539.0633545,835.9387817,273.4379272,1
850.454834,843.874939,-523.4382935,843.7513428,269.5316772,1
820.8452148,870.1945801,-523.4382935,843.7513428,269.5316772,1
801.1054077,889.9343872,-539.0633545,835.9387817,269.5316772,1
797.8154907,899.8042603,-539.0633545,835.9387817,269.5316772,1
825.7801514,863.6146851,-531.2508545,847.6575928,277.3441772,1
825.7801514,863.6146851,-535.1571045,843.7513428,277.3441772,1
825.7801514,863.6146851,-535.1571045,832.0325317,281.2504272,1
837.2949829,861.9697266,-535.1571045,832.0325317,281.2504272,1
825.7801514,855.3897705,-535.1571045,832.0325317,281.2504272,1
837.2949829,848.8098755,-546.8758545,835.9387817,281.2504272,1
838.9400024,843.874939,-546.8758545,835.9387817,281.2504272,1
838.9400024,843.874939,-531.2508545,839.8450928,281.2504272,1
840.5849609,845.5198975,-527.3446045,843.7513428,281.2504272,1
848.8098755,843.874939,-531.2508545,847.6575928,304.6879883,1
845.5198975,843.874939,-531.2508545,847.6575928,304.6879883,1
852.0997925,852.0997925,-542.9696045,835.9387817,296.8754578,1
837.2949829,845.5198975,-542.9696045,835.9387817,296.8754578,1
829.0700684,847.164856,-535.1571045,843.7513428,300.7817078,1
843.874939,845.5198975,-542.9696045,835.9387817,300.7817078,1
861.9697266,853.744812,-539.0633545,835.9387817,285.1567078,1
861.9697266,853.744812,-515.6257935,828.1262817,300.7817078,1
843.874939,852.0997925,-519.5320435,843.7513428,304.6879883,1
847.164856,850.454834,-519.5320435,843.7513428,304.6879883,1
829.0700684,852.0997925,-546.8758545,835.9387817,277.3441772,1
852.0997925,845.5198975,-546.8758545,835.9387817,277.3441772,1
837.2949829,845.5198975,-523.4382935,843.7513428,277.3441772,1
855.3897705,845.5198975,-523.4382935,835.9387817,281.2504272,1
855.3897705,845.5198975,-523.4382935,832.0325317,285.1567078,1
835.6500244,840.5849609,-523.4382935,828.1262817,312.5004883,1
835.6500244,840.5849609,-535.1571045,835.9387817,312.5004883,1
842.2299194,843.874939,-535.1571045,835.9387817,312.5004883,1
891.5793457,857.034729,-550.7821045,820.3137817,312.5004883,1
786.3005981,835.6500244,-558.5946045,835.9387817,296.8754578,1
786.3005981,827.4251099,-558.5946045,835.9387817,296.8754578,1
891.5793457,857.034729,-542.9696045,847.6575928,285.1567078,1
944.218689,866.9046631,-542.9696045,847.6575928,285.1567078,1
733.6612549,827.4251099,-535.1571045,839.8450928,277.3441772,1
733.6612549,827.4251099,-542.9696045,828.1262817,281.2504272,1
838.9400024,838.9400024,-542.9696045,828.1262817,281.2504272,1
802.7504272,837.2949829,-527.3446045,847.6575928,300.7817078,1
802.7504272,824.1351318,-527.3446045,832.0325317,292.9692078,1
855.3897705,843.874939,-527.3446045,832.0325317,292.9692078,1
750.1110229,838.9400024,-546.8758545,843.7513428,292.9692078,1
750.1110229,829.0700684,-539.0633545,851.5638428,285.1567078,1
908.0291748,853.744812,-527.3446045,832.0325317,292.9692078,1
908.0291748,853.744812,-527.3446045,835.9387817,296.8754578,1
750.1110229,829.0700684,-527.3446045,835.9387817,296.8754578,1
855.3897705,860.324707,-527.3446045,835.9387817,296.8754578,1
855.3897705,852.0997925,-546.8758545,835.9387817,292.9692078,1
908.0291748,863.6146851,-535.1571045,832.0325317,296.8754578,1
855.3897705,827.4251099,-535.1571045,832.0325317,296.8754578,1
750.1110229,825.7801514,-527.3446045,863.2825928,292.9692078,1
802.7504272,838.9400024,-531.2508545,843.7513428,289.0629578,1
802.7504272,838.9400024,-535.1571045,832.0325317,296.8754578,1
802.7504272,825.7801514,-539.0633545,839.8450928,289.0629578,1
730.3712769,820.8452148,-535.1571045,839.8450928,296.8754578,1
888.2893677,847.164856,-539.0633545,824.2200317,292.9692078,1
835.6500244,822.4901733,-539.0633545,824.2200317,292.9692078,1
888.2893677,852.0997925,-539.0633545,832.0325317,300.7817078,1
783.0106201,822.4901733,-539.0633545,832.0325317,300.7817078,1
730.3712769,817.5552368,-527.3446045,839.8450928,300.7817078,1
730.3712769,817.5552368,-527.3446045,832.0325317,296.8754578,1
835.6500244,819.2001953,-527.3446045,832.0325317,296.8754578,1
940.928772,855.3897705,-527.3446045,832.0325317,296.8754578,1
730.3712769,827.4251099,-546.8758545,835.9387817,281.2504272,1
845.5198975,837.2949829,-359.3755493,925.7827148,226.562851,1
847.164856,843.874939,-339.8442688,957.0327759,210.9378357,1
847.164856,843.874939,-328.1255188,949.2202148,203.1253204,1
837.2949829,837.2949829,-324.2192688,921.8764648,187.5002899,1
889.9343872,840.5849609,-269.5316772,902.3451538,156.2502441,1
889.9343872,840.5849609,-320.3129883,960.9390259,160.1564941,1
835.6500244,914.6090698,-546.8758545,804.6887817,355.4692993,1
824.1351318,916.2540283,-566.4071655,835.9387817,273.4379272,1
824.1351318,917.8990479,-550.7821045,808.5950317,273.4379272,1
838.9400024,912.9641113,-535.1571045,843.7513428,253.9066467,1
834.0050049,919.5440063,-535.1571045,843.7513428,253.9066467,1
819.2001953,908.0291748,-535.1571045,843.7513428,253.9066467,1
850.454834,955.7335815,-539.0633545,828.1262817,226.562851,1
850.454834,955.7335815,-566.4071655,824.2200317,246.0941315,1
835.6500244,939.2837524,-554.6883545,839.8450928,242.1878815,1
835.6500244,937.6387939,-554.6883545,839.8450928,242.1878815,1
843.874939,934.3488159,-539.0633545,839.8450928,242.1878815,1
843.874939,934.3488159,-546.8758545,832.0325317,238.2816162,1
830.7150879,912.9641113,-562.5008545,835.9387817,238.2816162,1
832.3600464,916.2540283,-562.5008545,835.9387817,238.2816162,1
837.2949829,912.9641113,-554.6883545,851.5638428,234.3753662,1
835.6500244,912.9641113,-554.6883545,851.5638428,234.3753662,1
827.4251099,908.0291748,-554.6883545,851.5638428,234.3753662,1
842.2299194,911.3190918,-550.7821045,832.0325317,250.0003967,1
840.5849609,914.6090698,-550.7821045,832.0325317,250.0003967,1
848.8098755,901.4492188,-550.7821045,843.7513428,246.0941315,1
848.8098755,901.4492188,-558.5946045,847.6575928,242.1878815,1
843.874939,898.1592407,-558.5946045,847.6575928,242.1878815,1
845.5198975,894.8693237,-546.8758545,839.8450928,253.9066467,1
842.2299194,894.8693237,-542.9696045,832.0325317,257.8128967,1
855.3897705,899.8042603,-550.7821045,847.6575928,246.0941315,1
855.3897705,903.0942383,-542.9696045,839.8450928,253.9066467,1
848.8098755,899.8042603,-570.3134155,863.2825928,238.2816162,1
835.6500244,894.8693237,-546.8758545,835.9387817,242.1878815,1
837.2949829,904.7391968,-546.8758545,835.9387817,242.1878815,1
845.5198975,901.4492188,-535.1571045,847.6575928,234.3753662,1
830.7150879,888.2893677,-535.1571045,847.6575928,234.3753662,1
830.7150879,888.2893677,-550.7821045,843.7513428,246.0941315,1
812.6203003,880.0644531,-566.4071655,839.8450928,238.2816162,1
799.4604492,876.7745361,-566.4071655,835.9387817,234.3753662,1
799.4604492,876.7745361,-546.8758545,843.7513428,238.2816162,1
801.1054077,883.3544312,-546.8758545,843.7513428,238.2816162,1
817.5552368,878.4194946,-550.7821045,839.8450928,226.562851,1
817.5552368,878.4194946,-546.8758545,843.7513428,230.4691162,1
825.7801514,878.4194946,-546.8758545,843.7513428,230.4691162,1
829.0700684,881.7094727,-542.9696045,847.6575928,242.1878815,1
847.164856,871.8395996,-550.7821045,832.0325317,246.0941315,1
817.5552368,871.8395996,-558.5946045,855.4700928,242.1878815,1
817.5552368,871.8395996,-558.5946045,847.6575928,238.2816162,1
822.4901733,871.8395996,-558.5946045,847.6575928,238.2816162,1
840.5849609,884.9994507,-558.5946045,835.9387817,242.1878815,1
840.5849609,884.9994507,-550.7821045,839.8450928,242.1878815,1
825.7801514,880.0644531,-550.7821045,839.8450928,242.1878815,1
827.4251099,891.5793457,-554.6883545,835.9387817,242.1878815,1
827.4251099,891.5793457,-554.6883545,843.7513428,234.3753662,1
830.7150879,894.8693237,-554.6883545,843.7513428,234.3753662,1
825.7801514,896.5142822,-566.4071655,843.7513428,242.1878815,1
815.9102783,883.3544312,-550.7821045,847.6575928,234.3753662,1
820.8452148,883.3544312,-546.8758545,839.8450928,242.1878815,1
804.3953857,894.8693237,-546.8758545,839.8450928,242.1878815,1
807.6853638,893.2243042,-558.5946045,839.8450928,238.2816162,1
807.6853638,893.2243042,-542.9696045,863.2825928,238.2816162,1
804.3953857,891.5793457,-542.9696045,863.2825928,238.2816162,1
802.7504272,894.8693237,-554.6883545,828.1262817,234.3753662,1
802.7504272,894.8693237,-566.4071655,835.9387817,238.2816162,1
794.5255127,896.5142822,-562.5008545,843.7513428,234.3753662,1
817.5552368,893.2243042,-542.9696045,847.6575928,242.1878815,1
829.0700684,883.3544312,-542.9696045,847.6575928,242.1878815,1
812.6203003,884.9994507,-542.9696045,847.6575928,242.1878815,1
812.6203003,884.9994507,-562.5008545,847.6575928,234.3753662,1
827.4251099,896.5142822,-550.7821045,832.0325317,250.0003967,1
827.4251099,896.5142822,-546.8758545,839.8450928,253.9066467,1
825.7801514,881.7094727,-554.6883545,847.6575928,250.0003967,1
787.9455566,863.6146851,-554.6883545,847.6575928,250.0003967,1
797.8154907,863.6146851,-542.9696045,839.8450928,253.9066467,1
797.8154907,863.6146851,-542.9696045,835.9387817,261.7191467,1
807.6853638,870.1945801,-566.4071655,835.9387817,246.0941315,1
802.7504272,870.1945801,-566.4071655,835.9387817,246.0941315,1
799.4604492,878.4194946,-566.4071655,835.9387817,246.0941315,1
842.2299194,876.7745361,-535.1571045,835.9387817,253.9066467,1
817.5552368,866.9046631,-535.1571045,835.9387817,253.9066467,1
819.2001953,878.4194946,-554.6883545,847.6575928,253.9066467,1
814.2652588,878.4194946,-554.6883545,847.6575928,253.9066467,1
825.7801514,880.0644531,-550.7821045,847.6575928,242.1878815,1
825.7801514,880.0644531,-550.7821045,832.0325317,234.3753662,1
817.5552368,878.4194946,-550.7821045,835.9387817,238.2816162,1
817.5552368,878.4194946,-542.9696045,851.5638428,238.2816162,1
801.1054077,876.7745361,-542.9696045,851.5638428,238.2816162,1
812.6203003,868.5496216,-542.9696045,851.5638428,230.4691162,1
812.6203003,868.5496216,-542.9696045,839.8450928,234.3753662,1
796.1704712,871.8395996,-546.8758545,835.9387817,242.1878815,1
809.3303223,884.9994507,-550.7821045,835.9387817,246.0941315,1
787.9455566,881.7094727,-550.7821045,847.6575928,250.0003967,1
786.3005981,860.324707,-550.7821045,847.6575928,250.0003967,1
794.5255127,863.6146851,-558.5946045,843.7513428,250.0003967,1
794.5255127,873.4845581,-558.5946045,843.7513428,250.0003967,1
794.5255127,873.4845581,-554.6883545,843.7513428,246.0941315,1
794.5255127,873.4845581,-554.6883545,839.8450928,242.1878815,1
802.7504272,875.1295166,-554.6883545,839.8450928,242.1878815,1
814.2652588,880.0644531,-550.7821045,835.9387817,250.0003967,1
815.9102783,880.0644531,-550.7821045,835.9387817,250.0003967,1
819.2001953,884.9994507,-539.0633545,855.4700928,250.0003967,1
819.2001953,884.9994507,-550.7821045,828.1262817,246.0941315,1
853.744812,893.2243042,-546.8758545,839.8450928,246.0941315,1
834.0050049,889.9343872,-566.4071655,816.4075317,246.0941315,1
834.0050049,889.9343872,-558.5946045,839.8450928,242.1878815,1
855.3897705,889.9343872,-562.5008545,832.0325317,242.1878815,1
855.3897705,889.9343872,-523.4382935,839.8450928,253.9066467,1
837.2949829,886.6444092,-523.4382935,839.8450928,253.9066467,1
842.2299194,883.3544312,-554.6883545,843.7513428,253.9066467,1
842.2299194,883.3544312,-550.7821045,843.7513428,238.2816162,1
837.2949829,881.7094727,-550.7821045,843.7513428,238.2816162,1
830.7150879,870.1945801,-550.7821045,843.7513428,238.2816162,1
837.2949829,876.7745361,-519.5320435,816.4075317,257.8128967,1
825.7801514,873.4845581,-519.5320435,816.4075317,257.8128967,1
842.2299194,912.9641113,-546.8758545,855.4700928,269.5316772,1
842.2299194,912.9641113,-546.8758545,867.1888428,277.3441772,1
812.6203003,912.9641113,-546.8758545,867.1888428,277.3441772,1
807.6853638,894.8693237,-562.5008545,820.3137817,304.6879883,1
807.6853638,894.8693237,-562.5008545,855.4700928,289.0629578,1
809.3303223,863.6146851,-562.5008545,855.4700928,289.0629578,1
814.2652588,850.454834,-531.2508545,804.6887817,296.8754578,1
810.9752808,847.164856,-531.2508545,804.6887817,296.8754578,1
817.5552368,845.5198975,-531.2508545,804.6887817,296.8754578,1
807.6853638,838.9400024,-535.1571045,875.0013428,304.6879883,1
797.8154907,829.0700684,-527.3446045,878.9076538,312.5004883,1
797.8154907,829.0700684,-535.1571045,867.1888428,312.5004883,1
792.8805542,827.4251099,-535.1571045,867.1888428,312.5004883,1
784.6556396,817.5552368,-535.1571045,859.3763428,273.4379272,1
784.6556396,817.5552368,-523.4382935,808.5950317,269.5316772,1
763.270874,820.8452148,-523.4382935,808.5950317,269.5316772,1
766.5608521,824.1351318,-519.5320435,820.3137817,238.2816162,1
761.6259155,835.6500244,-519.5320435,820.3137817,238.2816162,1
758.3359375,832.3600464,-484.3757629,871.0950928,273.4379272,1
773.1407471,845.5198975,-480.4695129,882.8139038,277.3441772,1
773.1407471,845.5198975,-468.7507324,906.2514038,289.0629578,1
773.1407471,845.5198975,-480.4695129,890.6264038,289.0629578,1
769.8508301,852.0997925,-480.4695129,890.6264038,289.0629578,1
774.7857666,866.9046631,-480.4695129,890.6264038,289.0629578,1
776.4307251,866.9046631,-496.0945129,867.1888428,277.3441772,1
774.7857666,852.0997925,-503.9070435,871.0950928,289.0629578,1
771.4957886,850.454834,-503.9070435,871.0950928,289.0629578,1
771.4957886,850.454834,-519.5320435,863.2825928,289.0629578,1
741.8861084,817.5552368,-492.1882629,855.4700928,292.9692078,1
766.5608521,834.0050049,-496.0945129,878.9076538,296.8754578,1
766.5608521,834.0050049,-562.5008545,863.2825928,265.6254272,1
756.690979,832.3600464,-554.6883545,835.9387817,273.4379272,1
778.0756836,806.0403442,-531.2508545,828.1262817,296.8754578,1
799.4604492,809.3303223,-531.2508545,828.1262817,296.8754578,1
789.5905762,853.744812,-496.0945129,871.0950928,296.8754578,1
786.3005981,863.6146851,-507.8132935,859.3763428,277.3441772,1
787.9455566,880.0644531,-515.6257935,816.4075317,269.5316772,1
764.9158325,886.6444092,-515.6257935,816.4075317,269.5316772,1
769.8508301,921.1889648,-523.4382935,847.6575928,285.1567078,1
792.8805542,934.3488159,-531.2508545,859.3763428,277.3441772,1
784.6556396,932.7038574,-527.3446045,824.2200317,289.0629578,1
784.6556396,932.7038574,-542.9696045,851.5638428,281.2504272,1
825.7801514,950.798645,-542.9696045,851.5638428,281.2504272,1
822.4901733,947.508667,-570.3134155,812.5012817,269.5316772,1
776.4307251,932.7038574,-554.6883545,824.2200317,277.3441772,1
771.4957886,921.1889648,-554.6883545,824.2200317,277.3441772,1
768.2058105,914.6090698,-554.6883545,824.2200317,277.3441772,1
761.6259155,911.3190918,-558.5946045,824.2200317,277.3441772,1
794.5255127,886.6444092,-558.5946045,824.2200317,277.3441772,1
779.7207031,922.8339844,-535.1571045,843.7513428,308.5942383,1
779.7207031,922.8339844,-550.7821045,812.5012817,316.4067383,1
755.0459595,939.2837524,-550.7821045,812.5012817,316.4067383,1
781.3656616,919.5440063,-558.5946045,832.0325317,300.7817078,1
781.3656616,919.5440063,-566.4071655,816.4075317,304.6879883,1
784.6556396,888.2893677,-566.4071655,816.4075317,304.6879883,1
789.5905762,886.6444092,-546.8758545,847.6575928,312.5004883,1
809.3303223,880.0644531,-546.8758545,847.6575928,312.5004883,1
817.5552368,873.4845581,-570.3134155,832.0325317,300.7817078,1
815.9102783,880.0644531,-570.3134155,832.0325317,300.7817078,1
827.4251099,866.9046631,-542.9696045,839.8450928,320.3129883,1
812.6203003,875.1295166,-542.9696045,839.8450928,320.3129883,1
819.2001953,850.454834,-570.3134155,820.3137817,332.0317688,1
829.0700684,843.874939,-511.7195435,839.8450928,351.5630493,1
852.0997925,837.2949829,-511.7195435,839.8450928,351.5630493,1
891.5793457,847.164856,-484.3757629,839.8450928,335.9380188,1
888.2893677,860.324707,-472.6569824,835.9387817,324.2192688,1
863.6146851,876.7745361,-500.0007935,855.4700928,304.6879883,1
850.454834,873.4845581,-500.0007935,855.4700928,304.6879883,1
847.164856,866.9046631,-523.4382935,835.9387817,289.0629578,1
824.1351318,870.1945801,-542.9696045,855.4700928,265.6254272,1
824.1351318,870.1945801,-535.1571045,832.0325317,273.4379272,1
825.7801514,871.8395996,-519.5320435,839.8450928,289.0629578,1
835.6500244,878.4194946,-519.5320435,839.8450928,289.0629578,1
832.3600464,875.1295166,-535.1571045,820.3137817,296.8754578,1
832.3600464,875.1295166,-550.7821045,832.0325317,300.7817078,1
794.5255127,873.4845581,-558.5946045,859.3763428,316.4067383,1
789.5905762,873.4845581,-558.5946045,859.3763428,316.4067383,1
776.4307251,881.7094727,-535.1571045,859.3763428,320.3129883,1
776.4307251,881.7094727,-531.2508545,835.9387817,312.5004883,1
807.6853638,881.7094727,-523.4382935,828.1262817,289.0629578,1
810.9752808,881.7094727,-550.7821045,804.6887817,265.6254272,1
814.2652588,883.3544312,-546.8758545,839.8450928,269.5316772,1
827.4251099,881.7094727,-539.0633545,820.3137817,308.5942383,1
827.4251099,881.7094727,-535.1571045,812.5012817,320.3129883,1
815.9102783,883.3544312,-535.1571045,812.5012817,320.3129883,1
802.7504272,873.4845581,-535.1571045,812.5012817,320.3129883,1
799.4604492,868.5496216,-535.1571045,859.3763428,308.5942383,1
819.2001953,871.8395996,-464.8444824,855.4700928,312.5004883,1
815.9102783,878.4194946,-464.8444824,855.4700928,312.5004883,1
819.2001953,876.7745361,-496.0945129,851.5638428,300.7817078,1
819.2001953,875.1295166,-496.0945129,851.5638428,300.7817078,1
822.4901733,880.0644531,-503.9070435,863.2825928,296.8754578,1
822.4901733,880.0644531,-496.0945129,875.0013428,300.7817078,1
825.7801514,873.4845581,-496.0945129,875.0013428,300.7817078,1
834.0050049,870.1945801,-492.1882629,859.3763428,300.7817078,1
825.7801514,870.1945801,-496.0945129,851.5638428,281.2504272,1
825.7801514,861.9697266,-496.0945129,851.5638428,281.2504272,1
812.6203003,866.9046631,-492.1882629,871.0950928,300.7817078,1
817.5552368,868.5496216,-500.0007935,875.0013428,289.0629578,1
820.8452148,863.6146851,-492.1882629,867.1888428,296.8754578,1
815.9102783,860.324707,-523.4382935,851.5638428,285.1567078,1
830.7150879,857.034729,-523.4382935,851.5638428,285.1567078,1
825.7801514,870.1945801,-488.2820129,828.1262817,324.2192688,1
845.5198975,866.9046631,-488.2820129,828.1262817,324.2192688,1
814.2652588,868.5496216,-527.3446045,878.9076538,296.8754578,1
837.2949829,866.9046631,-527.3446045,878.9076538,296.8754578,1
840.5849609,866.9046631,-527.3446045,878.9076538,296.8754578,1
827.4251099,868.5496216,-500.0007935,890.6264038,289.0629578,1
829.0700684,870.1945801,-500.0007935,890.6264038,289.0629578,1
843.874939,870.1945801,-496.0945129,832.0325317,269.5316772,1
815.9102783,870.1945801,-523.4382935,855.4700928,277.3441772,1
832.3600464,871.8395996,-523.4382935,855.4700928,277.3441772,1
815.9102783,871.8395996,-503.9070435,855.4700928,289.0629578,1
815.9102783,866.9046631,-503.9070435,855.4700928,289.0629578,1
807.6853638,863.6146851,-531.2508545,843.7513428,281.2504272,1
802.7504272,871.8395996,-527.3446045,859.3763428,285.1567078,1
827.4251099,876.7745361,-503.9070435,835.9387817,273.4379272,1
822.4901733,878.4194946,-496.0945129,839.8450928,273.4379272,1
822.4901733,878.4194946,-500.0007935,859.3763428,265.6254272,1
832.3600464,880.0644531,-503.9070435,855.4700928,265.6254272,1
829.0700684,875.1295166,-515.6257935,855.4700928,269.5316772,1
824.1351318,873.4845581,-515.6257935,851.5638428,273.4379272,1
825.7801514,875.1295166,-515.6257935,855.4700928,277.3441772,1
837.2949829,870.1945801,-515.6257935,855.4700928,277.3441772,1
832.3600464,871.8395996,-515.6257935,855.4700928,273.4379272,1
832.3600464,871.8395996,-519.5320435,859.3763428,273.4379272,1
834.0050049,871.8395996,-519.5320435,859.3763428,265.6254272,1
832.3600464,873.4845581,-511.7195435,855.4700928,265.6254272,1
843.874939,870.1945801,-507.8132935,855.4700928,269.5316772,1
843.874939,870.1945801,-515.6257935,847.6575928,265.6254272,1
834.0050049,868.5496216,-515.6257935,847.6575928,265.6254272,1
815.9102783,865.2596436,-515.6257935,847.6575928,265.6254272,1
830.7150879,861.9697266,-515.6257935,851.5638428,265.6254272,1
812.6203003,857.034729,-511.7195435,859.3763428,273.4379272,1
815.9102783,852.0997925,-519.5320435,867.1888428,261.7191467,1
819.2001953,860.324707,-519.5320435,867.1888428,261.7191467,1
834.0050049,861.9697266,-515.6257935,855.4700928,265.6254272,1
850.454834,861.9697266,-515.6257935,855.4700928,265.6254272,1
814.2652588,865.2596436,-515.6257935,855.4700928,265.6254272,1
853.744812,870.1945801,-507.8132935,867.1888428,257.8128967,1
853.744812,870.1945801,-507.8132935,851.5638428,265.6254272,1
812.6203003,873.4845581,-507.8132935,851.5638428,265.6254272,1
819.2001953,878.4194946,-515.6257935,867.1888428,265.6254272,1
804.3953857,870.1945801,-527.3446045,847.6575928,261.7191467,1
814.2652588,865.2596436,-527.3446045,847.6575928,261.7191467,1
814.2652588,865.2596436,-515.6257935,851.5638428,257.8128967,1
801.1054077,850.454834,-511.7195435,863.2825928,253.9066467,1
824.1351318,870.1945801,-519.5320435,843.7513428,265.6254272,1
819.2001953,870.1945801,-511.7195435,855.4700928,273.4379272,1
835.6500244,871.8395996,-511.7195435,855.4700928,273.4379272,1
824.1351318,868.5496216,-511.7195435,855.4700928,273.4379272,1
822.4901733,868.5496216,-527.3446045,855.4700928,285.1567078,1
825.7801514,861.9697266,-527.3446045,855.4700928,285.1567078,1
812.6203003,866.9046631,-527.3446045,855.4700928,285.1567078,1
838.9400024,866.9046631,-519.5320435,859.3763428,273.4379272,1
832.3600464,868.5496216,-519.5320435,859.3763428,273.4379272,1
819.2001953,861.9697266,-519.5320435,859.3763428,273.4379272,1
822.4901733,866.9046631,-492.1882629,863.2825928,281.2504272,1
824.1351318,868.5496216,-503.9070435,847.6575928,281.2504272,1
822.4901733,863.6146851,-523.4382935,851.5638428,277.3441772,1
822.4901733,863.6146851,-519.5320435,859.3763428,277.3441772,1
817.5552368,855.3897705,-511.7195435,847.6575928,285.1567078,1
842.2299194,860.324707,-527.3446045,839.8450928,292.9692078,1
819.2001953,847.164856,-511.7195435,851.5638428,273.4379272,1
796.1704712,852.0997925,-507.8132935,855.4700928,277.3441772,1
830.7150879,858.6797485,-503.9070435,832.0325317,285.1567078,1
802.7504272,863.6146851,-503.9070435,832.0325317,285.1567078,1
791.2355347,880.0644531,-535.1571045,871.0950928,285.1567078,1
791.2355347,880.0644531,-550.7821045,839.8450928,281.2504272,1
822.4901733,898.1592407,-550.7821045,839.8450928,281.2504272,1
796.1704712,893.2243042,-550.7821045,839.8450928,281.2504272,1
812.6203003,880.0644531,-535.1571045,828.1262817,292.9692078,1
812.6203003,880.0644531,-539.0633545,847.6575928,300.7817078,1
852.0997925,857.034729,-539.0633545,847.6575928,300.7817078,1
845.5198975,858.6797485,-515.6257935,843.7513428,332.0317688,1
845.5198975,858.6797485,-523.4382935,851.5638428,339.8442688,1
842.2299194,857.034729,-523.4382935,851.5638428,339.8442688,1
824.1351318,853.744812,-523.4382935,851.5638428,339.8442688,1
820.8452148,853.744812,-535.1571045,835.9387817,343.7505493,1
820.8452148,853.744812,-515.6257935,839.8450928,351.5630493,1
834.0050049,857.034729,-515.6257935,839.8450928,351.5630493,1
832.3600464,847.164856,-515.6257935,839.8450928,351.5630493,1
820.8452148,850.454834,-527.3446045,824.2200317,351.5630493,1
814.2652588,840.5849609,-527.3446045,824.2200317,351.5630493,1
814.2652588,842.2299194,-527.3446045,824.2200317,351.5630493,1
837.2949829,843.874939,-519.5320435,843.7513428,355.4692993,1
817.5552368,842.2299194,-527.3446045,839.8450928,339.8442688,1
817.5552368,842.2299194,-519.5320435,847.6575928,332.0317688,1
817.5552368,842.2299194,-503.9070435,839.8450928,335.9380188,1
832.3600464,845.5198975,-503.9070435,839.8450928,335.9380188,1
832.3600464,848.8098755,-503.9070435,839.8450928,335.9380188,1
834.0050049,850.454834,-523.4382935,871.0950928,308.5942383,1
837.2949829,860.324707,-523.4382935,871.0950928,308.5942383,1
825.7801514,853.744812,-503.9070435,855.4700928,332.0317688,1
825.7801514,853.744812,-531.2508545,882.8139038,308.5942383,1
853.744812,809.3303223,-457.0319519,835.9387817,320.3129883,1
838.9400024,838.9400024,-449.2194519,890.6264038,289.0629578,1
829.0700684,850.454834,-476.5632324,847.6575928,324.2192688,1
806.0403442,855.3897705,-503.9070435,851.5638428,320.3129883,1
806.0403442,855.3897705,-515.6257935,867.1888428,308.5942383,1
835.6500244,860.324707,-496.0945129,851.5638428,312.5004883,1
827.4251099,860.324707,-480.4695129,855.4700928,300.7817078,1
832.3600464,853.744812,-476.5632324,902.3451538,261.7191467,1
815.9102783,858.6797485,-476.5632324,902.3451538,261.7191467,1
843.874939,861.9697266,-500.0007935,906.2514038,230.4691162,1
827.4251099,861.9697266,-496.0945129,902.3451538,171.8752747,1
827.4251099,861.9697266,-480.4695129,890.6264038,164.0627594,1
845.5198975,860.324707,-480.4695129,890.6264038,164.0627594,1
837.2949829,860.324707,-457.0319519,875.0013428,167.9690094,1
837.2949829,860.324707,-449.2194519,871.0950928,171.8752747,1
848.8098755,853.744812,-441.4069519,855.4700928,187.5002899,1
834.0050049,853.744812,-496.0945129,863.2825928,214.8440857,1
834.0050049,855.3897705,-496.0945129,863.2825928,214.8440857,1
840.5849609,852.0997925,-496.0945129,863.2825928,214.8440857,1
834.0050049,857.034729,-511.7195435,863.2825928,257.8128967,1
835.6500244,853.744812,-484.3757629,871.0950928,250.0003967,1
835.6500244,853.744812,-480.4695129,886.7201538,250.0003967,1
847.164856,858.6797485,-476.5632324,886.7201538,253.9066467,1
847.164856,858.6797485,-484.3757629,878.9076538,269.5316772,1
857.034729,855.3897705,-484.3757629,878.9076538,269.5316772,1
853.744812,857.034729,-507.8132935,859.3763428,300.7817078,1
853.744812,857.034729,-480.4695129,878.9076538,312.5004883,1
843.874939,853.744812,-480.4695129,878.9076538,312.5004883,1
845.5198975,850.454834,-480.4695129,878.9076538,312.5004883,1
824.1351318,845.5198975,-488.2820129,871.0950928,328.1255188,1
824.1351318,845.5198975,-500.0007935,871.0950928,324.2192688,1
824.1351318,845.5198975,-500.0007935,863.2825928,328.1255188,1
837.2949829,845.5198975,-500.0007935,863.2825928,328.1255188,1
838.9400024,847.164856,-500.0007935,863.2825928,328.1255188,1
845.5198975,843.874939,-500.0007935,863.2825928,328.1255188,1
843.874939,852.0997925,-476.5632324,859.3763428,308.5942383,1
852.0997925,852.0997925,-480.4695129,867.1888428,308.5942383,1
855.3897705,853.744812,-480.4695129,867.1888428,308.5942383,1
827.4251099,852.0997925,-480.4695129,855.4700928,304.6879883,1
852.0997925,850.454834,-480.4695129,855.4700928,304.6879883,1
852.0997925,852.0997925,-480.4695129,855.4700928,304.6879883,1
832.3600464,855.3897705,-472.6569824,863.2825928,304.6879883,1
848.8098755,855.3897705,-472.6569824,863.2825928,304.6879883,1
834.0050049,855.3897705,-488.2820129,867.1888428,304.6879883,1
845.5198975,853.744812,-488.2820129,867.1888428,304.6879883,1
838.9400024,853.744812,-484.3757629,859.3763428,308.5942383,1
855.3897705,857.034729,-476.5632324,855.4700928,316.4067383,1
840.5849609,848.8098755,-476.5632324,855.4700928,316.4067383,1
837.2949829,842.2299194,-476.5632324,855.4700928,304.6879883,1
835.6500244,843.874939,-476.5632324,855.4700928,304.6879883,1
817.5552368,842.2299194,-476.5632324,859.3763428,308.5942383,1
820.8452148,842.2299194,-476.5632324,859.3763428,308.5942383,1
842.2299194,845.5198975,-492.1882629,863.2825928,308.5942383,1
838.9400024,855.3897705,-492.1882629,863.2825928,308.5942383,1
863.6146851,855.3897705,-480.4695129,863.2825928,308.5942383,1
845.5198975,855.3897705,-492.1882629,863.2825928,308.5942383,1
845.5198975,865.2596436,-492.1882629,863.2825928,308.5942383,1
845.5198975,865.2596436,-488.2820129,867.1888428,304.6879883,1
824.1351318,863.6146851,-484.3757629,859.3763428,304.6879883,1
815.9102783,865.2596436,-488.2820129,863.2825928,304.6879883,1
838.9400024,863.6146851,-476.5632324,863.2825928,308.5942383,1
815.9102783,857.034729,-492.1882629,855.4700928,304.6879883,1
852.0997925,855.3897705,-492.1882629,863.2825928,300.7817078,1
838.9400024,845.5198975,-492.1882629,863.2825928,300.7817078,1
857.034729,857.034729,-488.2820129,851.5638428,308.5942383,1
850.454834,852.0997925,-488.2820129,851.5638428,308.5942383,1
852.0997925,853.744812,-492.1882629,867.1888428,308.5942383,1
852.0997925,853.744812,-496.0945129,859.3763428,308.5942383,1
848.8098755,861.9697266,-496.0945129,859.3763428,308.5942383,1
843.874939,870.1945801,-488.2820129,855.4700928,308.5942383,1
843.874939,870.1945801,-472.6569824,867.1888428,312.5004883,1
850.454834,858.6797485,-472.6569824,867.1888428,312.5004883,1
838.9400024,873.4845581,-472.6569824,867.1888428,312.5004883,1
820.8452148,868.5496216,-449.2194519,882.8139038,328.1255188,1
794.5255127,896.5142822,-449.2194519,859.3763428,300.7817078,1
796.1704712,896.5142822,-488.2820129,835.9387817,273.4379272,1
796.1704712,896.5142822,-500.0007935,855.4700928,273.4379272,1
812.6203003,899.8042603,-500.0007935,855.4700928,273.4379272,1
822.4901733,866.9046631,-500.0007935,855.4700928,273.4379272,1
834.0050049,861.9697266,-503.9070435,875.0013428,320.3129883,1
832.3600464,853.744812,-503.9070435,875.0013428,320.3129883,1
845.5198975,852.0997925,-519.5320435,843.7513428,324.2192688,1
843.874939,853.744812,-519.5320435,843.7513428,324.2192688,1
837.2949829,842.2299194,-480.4695129,890.6264038,324.2192688,1
852.0997925,860.324707,-457.0319519,843.7513428,332.0317688,1
852.0997925,860.324707,-460.9382324,828.1262817,351.5630493,1
845.5198975,853.744812,-500.0007935,871.0950928,343.7505493,1
824.1351318,852.0997925,-531.2508545,832.0325317,339.8442688,1
842.2299194,852.0997925,-531.2508545,832.0325317,339.8442688,1
850.454834,858.6797485,-531.2508545,832.0325317,339.8442688,1
883.3544312,820.8452148,-531.2508545,820.3137817,343.7505493,1
853.744812,817.5552368,-519.5320435,824.2200317,351.5630493,1
853.744812,817.5552368,-515.6257935,843.7513428,359.3755493,1
870.1945801,804.3953857,-507.8132935,855.4700928,339.8442688,1
858.6797485,819.2001953,-507.8132935,839.8450928,339.8442688,1
807.6853638,847.164856,-476.5632324,875.0013428,343.7505493,1
827.4251099,842.2299194,-488.2820129,839.8450928,308.5942383,1
827.4251099,842.2299194,-492.1882629,820.3137817,308.5942383,1
827.4251099,842.2299194,-511.7195435,824.2200317,304.6879883,1
807.6853638,835.6500244,-511.7195435,824.2200317,304.6879883,1
806.0403442,837.2949829,-515.6257935,839.8450928,308.5942383,1
810.9752808,840.5849609,-562.5008545,808.5950317,316.4067383,1
835.6500244,835.6500244,-500.0007935,843.7513428,300.7817078,1
814.2652588,832.3600464,-500.0007935,843.7513428,300.7817078,1
804.3953857,845.5198975,-500.0007935,843.7513428,300.7817078,1
815.9102783,850.454834,-519.5320435,859.3763428,316.4067383,1
814.2652588,852.0997925,-519.5320435,859.3763428,316.4067383,1
809.3303223,848.8098755,-539.0633545,812.5012817,335.9380188,1
827.4251099,850.454834,-539.0633545,812.5012817,335.9380188,1
838.9400024,852.0997925,-539.0633545,812.5012817,335.9380188,1
838.9400024,852.0997925,-539.0633545,824.2200317,316.4067383,1
838.9400024,852.0997925,-519.5320435,843.7513428,320.3129883,1
842.2299194,847.164856,-519.5320435,843.7513428,320.3129883,1
815.9102783,843.874939,-519.5320435,843.7513428,320.3129883,1
817.5552368,843.874939,-519.5320435,820.3137817,328.1255188,1
837.2949829,848.8098755,-531.2508545,816.4075317,328.1255188,1
832.3600464,842.2299194,-519.5320435,839.8450928,312.5004883,1
832.3600464,842.2299194,-511.7195435,839.8450928,308.5942383,1
806.0403442,835.6500244,-527.3446045,851.5638428,312.5004883,1
822.4901733,835.6500244,-527.3446045,851.5638428,312.5004883,1
820.8452148,842.2299194,-527.3446045,816.4075317,316.4067383,1
820.8452148,842.2299194,-527.3446045,820.3137817,316.4067383,1
840.5849609,847.164856,-527.3446045,820.3137817,316.4067383,1
810.9752808,847.164856,-527.3446045,820.3137817,316.4067383,1
824.1351318,853.744812,-527.3446045,820.3137817,316.4067383,1
819.2001953,845.5198975,-496.0945129,851.5638428,332.0317688,1
838.9400024,855.3897705,-503.9070435,835.9387817,316.4067383,1
810.9752808,858.6797485,-523.4382935,832.0325317,320.3129883,1
801.1054077,884.9994507,-496.0945129,839.8450928,316.4067383,1
801.1054077,884.9994507,-507.8132935,843.7513428,316.4067383,1
787.9455566,881.7094727,-515.6257935,835.9387817,324.2192688,1
809.3303223,866.9046631,-515.6257935,835.9387817,324.2192688,1
832.3600464,848.8098755,-515.6257935,835.9387817,332.0317688,1
832.3600464,848.8098755,-503.9070435,832.0325317,343.7505493,1
814.2652588,842.2299194,-503.9070435,832.0325317,343.7505493,1
847.164856,848.8098755,-507.8132935,828.1262817,343.7505493,1
847.164856,848.8098755,-507.8132935,832.0325317,339.8442688,1
847.164856,848.8098755,-507.8132935,839.8450928,335.9380188,1
847.164856,848.8098755,-500.0007935,839.8450928,343.7505493,1
858.6797485,848.8098755,-500.0007935,839.8450928,343.7505493,1
820.8452148,843.874939,-500.0007935,839.8450928,343.7505493,1
842.2299194,840.5849609,-511.7195435,828.1262817,355.4692993,1
842.2299194,840.5849609,-507.8132935,832.0325317,359.3755493,1
820.8452148,848.8098755,-507.8132935,832.0325317,359.3755493,1
871.8395996,855.3897705,-507.8132935,832.0325317,359.3755493,1
832.3600464,852.0997925,-472.6569824,851.5638428,359.3755493,1
834.0050049,845.5198975,-484.3757629,835.9387817,371.0943298,1
834.0050049,845.5198975,-488.2820129,843.7513428,363.2818298,1
830.7150879,843.874939,-468.7507324,851.5638428,359.3755493,1
843.874939,840.5849609,-472.6569824,839.8450928,347.6567993,1
843.874939,840.5849609,-488.2820129,847.6575928,351.5630493,1
820.8452148,838.9400024,-488.2820129,847.6575928,351.5630493,1
824.1351318,840.5849609,-488.2820129,847.6575928,351.5630493,1
837.2949829,847.164856,-480.4695129,847.6575928,363.2818298,1
855.3897705,848.8098755,-480.4695129,847.6575928,363.2818298,1
824.1351318,845.5198975,-480.4695129,847.6575928,363.2818298,1
824.1351318,845.5198975,-457.0319519,871.0950928,347.6567993,1
824.1351318,845.5198975,-453.1257019,847.6575928,355.4692993,1
835.6500244,850.454834,-476.5632324,839.8450928,347.6567993,1
835.6500244,850.454834,-488.2820129,851.5638428,359.3755493,1
817.5552368,845.5198975,-488.2820129,851.5638428,359.3755493,1
842.2299194,848.8098755,-484.3757629,835.9387817,355.4692993,1
855.3897705,855.3897705,-484.3757629,835.9387817,355.4692993,1
830.7150879,853.744812,-492.1882629,832.0325317,351.5630493,1
827.4251099,853.744812,-472.6569824,843.7513428,359.3755493,1
853.744812,855.3897705,-464.8444824,855.4700928,351.5630493,1
853.744812,855.3897705,-484.3757629,851.5638428,355.4692993,1
861.9697266,855.3897705,-484.3757629,851.5638428,355.4692993,1
832.3600464,850.454834,-480.4695129,843.7513428,347.6567993,1
840.5849609,850.454834,-480.4695129,843.7513428,347.6567993,1
822.4901733,838.9400024,-484.3757629,859.3763428,339.8442688,1
820.8452148,842.2299194,-484.3757629,847.6575928,351.5630493,1
825.7801514,845.5198975,-484.3757629,843.7513428,339.8442688,1
825.7801514,845.5198975,-484.3757629,847.6575928,339.8442688,1
827.4251099,848.8098755,-472.6569824,843.7513428,347.6567993,1
847.164856,847.164856,-484.3757629,875.0013428,351.5630493,1
847.164856,847.164856,-488.2820129,863.2825928,343.7505493,1
835.6500244,853.744812,-488.2820129,863.2825928,343.7505493,1
840.5849609,855.3897705,-488.2820129,863.2825928,343.7505493,1
857.034729,845.5198975,-496.0945129,828.1262817,339.8442688,1
880.0644531,812.6203003,-503.9070435,835.9387817,339.8442688,1
889.9343872,814.2652588,-500.0007935,867.1888428,351.5630493,1
878.4194946,825.7801514,-492.1882629,839.8450928,335.9380188,1
858.6797485,830.7150879,-488.2820129,835.9387817,335.9380188,1
860.324707,842.2299194,-507.8132935,851.5638428,328.1255188,1
860.324707,842.2299194,-484.3757629,875.0013428,328.1255188,1
843.874939,842.2299194,-484.3757629,875.0013428,328.1255188,1
829.0700684,848.8098755,-484.3757629,875.0013428,328.1255188,1
827.4251099,853.744812,-480.4695129,847.6575928,312.5004883,1
834.0050049,853.744812,-480.4695129,847.6575928,312.5004883,1
834.0050049,853.744812,-503.9070435,847.6575928,292.9692078,1
829.0700684,850.454834,-519.5320435,847.6575928,292.9692078,1
799.4604492,855.3897705,-511.7195435,847.6575928,289.0629578,1
799.4604492,855.3897705,-507.8132935,871.0950928,285.1567078,1
838.9400024,848.8098755,-507.8132935,871.0950928,285.1567078,1
840.5849609,853.744812,-503.9070435,859.3763428,281.2504272,1
853.744812,847.164856,-527.3446045,855.4700928,281.2504272,1
845.5198975,847.164856,-500.0007935,882.8139038,285.1567078,1
853.744812,852.0997925,-503.9070435,871.0950928,281.2504272,1
857.034729,857.034729,-503.9070435,871.0950928,281.2504272,1
842.2299194,855.3897705,-511.7195435,863.2825928,273.4379272,1
852.0997925,853.744812,-519.5320435,859.3763428,265.6254272,1
832.3600464,850.454834,-519.5320435,859.3763428,265.6254272,1
838.9400024,857.034729,-492.1882629,835.9387817,273.4379272,1
829.0700684,853.744812,-515.6257935,859.3763428,277.3441772,1
847.164856,857.034729,-515.6257935,851.5638428,281.2504272,1
847.164856,857.034729,-519.5320435,855.4700928,277.3441772,1
829.0700684,852.0997925,-519.5320435,855.4700928,277.3441772,1
842.2299194,843.874939,-519.5320435,855.4700928,277.3441772,1
824.1351318,843.874939,-511.7195435,851.5638428,285.1567078,1
824.1351318,843.874939,-515.6257935,855.4700928,281.2504272,1
845.5198975,843.874939,-515.6257935,855.4700928,277.3441772,1
819.2001953,845.5198975,-503.9070435,863.2825928,277.3441772,1
819.2001953,845.5198975,-503.9070435,859.3763428,277.3441772,1
838.9400024,850.454834,-503.9070435,859.3763428,277.3441772,1
853.744812,853.744812,-523.4382935,847.6575928,281.2504272,1
850.454834,848.8098755,-519.5320435,863.2825928,281.2504272,1
843.874939,852.0997925,-507.8132935,843.7513428,281.2504272,1
838.9400024,850.454834,-519.5320435,851.5638428,269.5316772,1
843.874939,858.6797485,-511.7195435,847.6575928,273.4379272,1
832.3600464,843.874939,-496.0945129,855.4700928,296.8754578,1
827.4251099,845.5198975,-523.4382935,863.2825928,304.6879883,1
830.7150879,842.2299194,-523.4382935,863.2825928,304.6879883,1
835.6500244,843.874939,-523.4382935,863.2825928,304.6879883,1
847.164856,852.0997925,-515.6257935,851.5638428,300.7817078,1
847.164856,852.0997925,-507.8132935,859.3763428,300.7817078,1
827.4251099,860.324707,-507.8132935,859.3763428,300.7817078,1
840.5849609,857.034729,-507.8132935,859.3763428,300.7817078,1
837.2949829,860.324707,-507.8132935,859.3763428,292.9692078,1
834.0050049,850.454834,-531.2508545,847.6575928,296.8754578,1
858.6797485,830.7150879,-527.3446045,859.3763428,300.7817078,1
860.324707,834.0050049,-523.4382935,839.8450928,300.7817078,1
850.454834,838.9400024,-519.5320435,820.3137817,292.9692078,1
842.2299194,847.164856,-527.3446045,843.7513428,281.2504272,1
848.8098755,850.454834,-527.3446045,843.7513428,281.2504272,1
843.874939,843.874939,-500.0007935,871.0950928,281.2504272,1
847.164856,835.6500244,-500.0007935,871.0950928,281.2504272,1
834.0050049,837.2949829,-527.3446045,851.5638428,281.2504272,1
843.874939,858.6797485,-527.3446045,851.5638428,277.3441772,1
843.874939,858.6797485,-519.5320435,855.4700928,281.2504272,1
852.0997925,850.454834,-507.8132935,847.6575928,296.8754578,1
852.0997925,850.454834,-531.2508545,839.8450928,292.9692078,1
858.6797485,845.5198975,-500.0007935,867.1888428,273.4379272,1
840.5849609,857.034729,-500.0007935,867.1888428,281.2504272,1
825.7801514,853.744812,-515.6257935,855.4700928,292.9692078,1
845.5198975,852.0997925,-515.6257935,855.4700928,292.9692078,1
832.3600464,852.0997925,-527.3446045,851.5638428,289.0629578,1
832.3600464,852.0997925,-531.2508545,851.5638428,285.1567078,1
832.3600464,852.0997925,-542.9696045,835.9387817,285.1567078,1
832.3600464,852.0997925,-531.2508545,839.8450928,281.2504272,1
830.7150879,853.744812,-531.2508545,839.8450928,281.2504272,1
850.454834,857.034729,-531.2508545,839.8450928,281.2504272,1
835.6500244,855.3897705,-515.6257935,847.6575928,289.0629578,1
830.7150879,852.0997925,-515.6257935,847.6575928,289.0629578,1
822.4901733,848.8098755,-511.7195435,851.5638428,281.2504272,1
850.454834,850.454834,-507.8132935,843.7513428,289.0629578,1
840.5849609,853.744812,-503.9070435,859.3763428,289.0629578,1
857.034729,850.454834,-503.9070435,859.3763428,289.0629578,1
843.874939,850.454834,-523.4382935,839.8450928,281.2504272,1
840.5849609,852.0997925,-531.2508545,851.5638428,285.1567078,1
853.744812,857.034729,-515.6257935,859.3763428,289.0629578,1
853.744812,857.034729,-503.9070435,851.5638428,296.8754578,1
853.744812,857.034729,-496.0945129,859.3763428,300.7817078,1
838.9400024,850.454834,-496.0945129,859.3763428,300.7817078,1
837.2949829,845.5198975,-515.6257935,851.5638428,281.2504272,1
848.8098755,850.454834,-515.6257935,851.5638428,281.2504272,1
838.9400024,847.164856,-523.4382935,847.6575928,281.2504272,1
838.9400024,847.164856,-515.6257935,851.5638428,285.1567078,1
824.1351318,847.164856,-515.6257935,851.5638428,285.1567078,1
843.874939,868.5496216,-488.2820129,855.4700928,292.9692078,1
837.2949829,866.9046631,-488.2820129,855.4700928,292.9692078,1
773.1407471,899.8042603,-503.9070435,851.5638428,281.2504272,1
783.0106201,903.0942383,-503.9070435,851.5638428,281.2504272,1
778.0756836,896.5142822,-503.9070435,851.5638428,281.2504272,1
819.2001953,860.324707,-503.9070435,847.6575928,292.9692078,1
819.2001953,861.9697266,-503.9070435,847.6575928,292.9692078,1
822.4901733,857.034729,-503.9070435,847.6575928,292.9692078,1
850.454834,855.3897705,-492.1882629,839.8450928,320.3129883,1
858.6797485,857.034729,-500.0007935,843.7513428,328.1255188,1
832.3600464,850.454834,-500.0007935,859.3763428,335.9380188,1
832.3600464,850.454834,-472.6569824,863.2825928,347.6567993,1
848.8098755,850.454834,-460.9382324,867.1888428,351.5630493,1
848.8098755,850.454834,-460.9382324,871.0950928,355.4692993,1
853.744812,858.6797485,-472.6569824,855.4700928,351.5630493,1
866.9046631,863.6146851,-476.5632324,863.2825928,347.6567993,1
838.9400024,857.034729,-468.7507324,855.4700928,339.8442688,1
847.164856,860.324707,-468.7507324,855.4700928,339.8442688,1
838.9400024,858.6797485,-468.7507324,855.4700928,339.8442688,1
842.2299194,848.8098755,-460.9382324,859.3763428,355.4692993,1
847.164856,850.454834,-468.7507324,855.4700928,351.5630493,1
837.2949829,848.8098755,-468.7507324,855.4700928,343.7505493,1
850.454834,848.8098755,-464.8444824,859.3763428,343.7505493,1
840.5849609,848.8098755,-464.8444824,859.3763428,343.7505493,1
824.1351318,870.1945801,-464.8444824,863.2825928,339.8442688,1
802.7504272,868.5496216,-464.8444824,863.2825928,339.8442688,1
812.6203003,855.3897705,-464.8444824,859.3763428,339.8442688,1
830.7150879,848.8098755,-464.8444824,855.4700928,339.8442688,1
853.744812,848.8098755,-472.6569824,859.3763428,339.8442688,1
847.164856,852.0997925,-472.6569824,859.3763428,339.8442688,1
852.0997925,863.6146851,-468.7507324,867.1888428,339.8442688,1
845.5198975,876.7745361,-464.8444824,859.3763428,347.6567993,1
845.5198975,876.7745361,-460.9382324,863.2825928,339.8442688,1
884.9994507,860.324707,-460.9382324,863.2825928,339.8442688,1
884.9994507,860.324707,-472.6569824,859.3763428,332.0317688,1
824.1351318,847.164856,-472.6569824,859.3763428,332.0317688,1
832.3600464,838.9400024,-460.9382324,855.4700928,335.9380188,1
825.7801514,845.5198975,-472.6569824,859.3763428,339.8442688,1
843.874939,865.2596436,-472.6569824,855.4700928,339.8442688,1
843.874939,865.2596436,-460.9382324,867.1888428,343.7505493,1
827.4251099,857.034729,-460.9382324,867.1888428,343.7505493,1
845.5198975,871.8395996,-460.9382324,867.1888428,339.8442688,1
843.874939,861.9697266,-460.9382324,859.3763428,332.0317688,1
857.034729,861.9697266,-468.7507324,859.3763428,328.1255188,1
868.5496216,860.324707,-464.8444824,859.3763428,335.9380188,1
835.6500244,855.3897705,-464.8444824,859.3763428,335.9380188,1
853.744812,857.034729,-468.7507324,855.4700928,335.9380188,1
863.6146851,855.3897705,-468.7507324,855.4700928,335.9380188,1
824.1351318,855.3897705,-464.8444824,863.2825928,339.8442688,1
824.1351318,855.3897705,-468.7507324,855.4700928,335.9380188,1
850.454834,855.3897705,-468.7507324,855.4700928,335.9380188,1
840.5849609,855.3897705,-468.7507324,855.4700928,335.9380188,1
829.0700684,843.874939,-468.7507324,859.3763428,335.9380188,1
825.7801514,840.5849609,-472.6569824,859.3763428,335.9380188,1
817.5552368,843.874939,-472.6569824,859.3763428,335.9380188,1
829.0700684,848.8098755,-460.9382324,859.3763428,335.9380188,1
834.0050049,848.8098755,-460.9382324,859.3763428,335.9380188,1
834.0050049,853.744812,-472.6569824,859.3763428,335.9380188,1
850.454834,860.324707,-472.6569824,859.3763428,335.9380188,1
857.034729,858.6797485,-464.8444824,859.3763428,335.9380188,1
843.874939,858.6797485,-464.8444824,859.3763428,335.9380188,1
868.5496216,858.6797485,-468.7507324,855.4700928,339.8442688,1
868.5496216,858.6797485,-468.7507324,859.3763428,339.8442688,1
838.9400024,853.744812,-468.7507324,859.3763428,339.8442688,1
847.164856,850.454834,-468.7507324,859.3763428,335.9380188,1
857.034729,850.454834,-464.8444824,855.4700928,339.8442688,1
857.034729,850.454834,-460.9382324,859.3763428,335.9380188,1
817.5552368,842.2299194,-468.7507324,855.4700928,335.9380188,1
815.9102783,842.2299194,-468.7507324,859.3763428,339.8442688,1
866.9046631,863.6146851,-468.7507324,859.3763428,339.8442688,1
866.9046631,863.6146851,-468.7507324,859.3763428,335.9380188,1
866.9046631,863.6146851,-468.7507324,855.4700928,332.0317688,1
850.454834,857.034729,-468.7507324,855.4700928,332.0317688,1
853.744812,852.0997925,-464.8444824,859.3763428,335.9380188,1
837.2949829,857.034729,-464.8444824,859.3763428,335.9380188,1
845.5198975,863.6146851,-468.7507324,859.3763428,335.9380188,1
845.5198975,863.6146851,-476.5632324,859.3763428,332.0317688,1
860.324707,861.9697266,-476.5632324,859.3763428,332.0317688,1
840.5849609,853.744812,-460.9382324,859.3763428,339.8442688,1
840.5849609,853.744812,-464.8444824,863.2825928,339.8442688,1
840.5849609,853.744812,-464.8444824,859.3763428,339.8442688,1
837.2949829,857.034729,-464.8444824,859.3763428,339.8442688,1
843.874939,855.3897705,-464.8444824,859.3763428,339.8442688,1
824.1351318,842.2299194,-472.6569824,855.4700928,339.8442688,1
810.9752808,855.3897705,-472.6569824,855.4700928,339.8442688,1
838.9400024,852.0997925,-464.8444824,859.3763428,339.8442688,1
834.0050049,843.874939,-464.8444824,859.3763428,339.8442688,1
852.0997925,847.164856,-472.6569824,859.3763428,339.8442688,1
866.9046631,840.5849609,-511.7195435,839.8450928,339.8442688,1
870.1945801,830.7150879,-511.7195435,839.8450928,339.8442688,1
871.8395996,817.5552368,-511.7195435,839.8450928,339.8442688,1
865.2596436,827.4251099,-492.1882629,855.4700928,363.2818298,1
875.1295166,830.7150879,-492.1882629,855.4700928,363.2818298,1
845.5198975,830.7150879,-511.7195435,855.4700928,328.1255188,1
850.454834,837.2949829,-511.7195435,855.4700928,328.1255188,1
848.8098755,842.2299194,-500.0007935,855.4700928,316.4067383,1
848.8098755,842.2299194,-503.9070435,867.1888428,300.7817078,1
848.8098755,842.2299194,-492.1882629,863.2825928,289.0629578,1
837.2949829,837.2949829,-492.1882629,863.2825928,289.0629578,1
847.164856,848.8098755,-492.1882629,863.2825928,289.0629578,1
830.7150879,853.744812,-480.4695129,867.1888428,246.0941315,1
815.9102783,861.9697266,-480.4695129,867.1888428,246.0941315,1
817.5552368,853.744812,-488.2820129,859.3763428,230.4691162,1
843.874939,858.6797485,-492.1882629,863.2825928,222.656601,1
847.164856,860.324707,-507.8132935,855.4700928,210.9378357,1
834.0050049,857.034729,-507.8132935,855.4700928,210.9378357,1
850.454834,860.324707,-511.7195435,871.0950928,222.656601,1
843.874939,858.6797485,-511.7195435,871.0950928,222.656601,1
865.2596436,855.3897705,-531.2508545,859.3763428,234.3753662,1
837.2949829,852.0997925,-519.5320435,863.2825928,238.2816162,1
853.744812,852.0997925,-531.2508545,859.3763428,230.4691162,1
858.6797485,852.0997925,-531.2508545,859.3763428,246.0941315,1
842.2299194,857.034729,-531.2508545,859.3763428,246.0941315,1
822.4901733,840.5849609,-535.1571045,859.3763428,242.1878815,1
850.454834,843.874939,-523.4382935,855.4700928,246.0941315,1
850.454834,843.874939,-527.3446045,859.3763428,250.0003967,1
850.454834,850.454834,-527.3446045,859.3763428,250.0003967,1
855.3897705,855.3897705,-515.6257935,867.1888428,257.8128967,1
850.454834,852.0997925,-515.6257935,867.1888428,257.8128967,1
842.2299194,863.6146851,-515.6257935,867.1888428,257.8128967,1
847.164856,855.3897705,-539.0633545,851.5638428,253.9066467,1
835.6500244,855.3897705,-539.0633545,851.5638428,253.9066467,1
863.6146851,852.0997925,-527.3446045,855.4700928,253.9066467,1
863.6146851,852.0997925,-523.4382935,847.6575928,253.9066467,1
866.9046631,852.0997925,-523.4382935,847.6575928,253.9066467,1
852.0997925,857.034729,-523.4382935,847.6575928,253.9066467,1
857.034729,852.0997925,-527.3446045,855.4700928,261.7191467,1
863.6146851,852.0997925,-527.3446045,855.4700928,261.7191467,1
850.454834,852.0997925,-515.6257935,843.7513428,265.6254272,1
850.454834,852.0997925,-523.4382935,886.7201538,269.5316772,1
843.874939,850.454834,-523.4382935,886.7201538,269.5316772,1
848.8098755,857.034729,-531.2508545,855.4700928,242.1878815,1
848.8098755,857.034729,-519.5320435,839.8450928,250.0003967,1
835.6500244,845.5198975,-523.4382935,859.3763428,261.7191467,1
835.6500244,845.5198975,-535.1571045,847.6575928,265.6254272,1
843.874939,853.744812,-535.1571045,847.6575928,265.6254272,1
866.9046631,832.3600464,-535.1571045,847.6575928,265.6254272,1
863.6146851,837.2949829,-531.2508545,851.5638428,253.9066467,1
868.5496216,845.5198975,-531.2508545,851.5638428,253.9066467,1
824.1351318,843.874939,-539.0633545,851.5638428,253.9066467,1
824.1351318,843.874939,-531.2508545,851.5638428,253.9066467,1
835.6500244,845.5198975,-531.2508545,851.5638428,253.9066467,1
863.6146851,850.454834,-515.6257935,855.4700928,253.9066467,1
866.9046631,852.0997925,-523.4382935,859.3763428,253.9066467,1
850.454834,850.454834,-527.3446045,859.3763428,257.8128967,1
865.2596436,847.164856,-527.3446045,859.3763428,257.8128967,1
837.2949829,840.5849609,-527.3446045,859.3763428,257.8128967,1
837.2949829,840.5849609,-515.6257935,851.5638428,257.8128967,1
829.0700684,838.9400024,-503.9070435,859.3763428,265.6254272,1
847.164856,848.8098755,-503.9070435,859.3763428,265.6254272,1
792.8805542,876.7745361,-492.1882629,859.3763428,261.7191467,1
769.8508301,888.2893677,-496.0945129,855.4700928,250.0003967,1
769.8508301,888.2893677,-519.5320435,851.5638428,250.0003967,1
789.5905762,893.2243042,-519.5320435,851.5638428,250.0003967,1
799.4604492,870.1945801,-519.5320435,851.5638428,277.3441772,1
842.2299194,865.2596436,-519.5320435,851.5638428,277.3441772,1
852.0997925,847.164856,-515.6257935,843.7513428,296.8754578,1
834.0050049,852.0997925,-503.9070435,863.2825928,312.5004883,1
834.0050049,852.0997925,-503.9070435,859.3763428,308.5942383,1
858.6797485,852.0997925,-500.0007935,855.4700928,308.5942383,1
843.874939,842.2299194,-500.0007935,855.4700928,308.5942383,1
843.874939,842.2299194,-496.0945129,855.4700928,324.2192688,1
873.4845581,847.164856,-500.0007935,851.5638428,324.2192688,1
853.744812,843.874939,-480.4695129,859.3763428,328.1255188,1
853.744812,843.874939,-480.4695129,855.4700928,328.1255188,1
853.744812,843.874939,-492.1882629,871.0950928,328.1255188,1
829.0700684,847.164856,-492.1882629,871.0950928,328.1255188,1
853.744812,850.454834,-492.1882629,871.0950928,328.1255188,1
880.0644531,850.454834,-488.2820129,847.6575928,324.2192688,1
832.3600464,847.164856,-488.2820129,847.6575928,324.2192688,1
835.6500244,848.8098755,-480.4695129,855.4700928,339.8442688,1
853.744812,853.744812,-476.5632324,847.6575928,351.5630493,1
860.324707,850.454834,-492.1882629,863.2825928,328.1255188,1
835.6500244,850.454834,-457.0319519,828.1262817,343.7505493,1
832.3600464,848.8098755,-453.1257019,832.0325317,359.3755493,1
861.9697266,848.8098755,-453.1257019,832.0325317,359.3755493,1
845.5198975,847.164856,-488.2820129,835.9387817,359.3755493,1
858.6797485,843.874939,-488.2820129,835.9387817,359.3755493,1
858.6797485,843.874939,-523.4382935,859.3763428,332.0317688,1
858.6797485,838.9400024,-523.4382935,859.3763428,332.0317688,1
853.744812,883.3544312,-496.0945129,878.9076538,300.7817078,1
855.3897705,876.7745361,-496.0945129,878.9076538,300.7817078,1
815.9102783,878.4194946,-523.4382935,804.6887817,296.8754578,1
832.3600464,848.8098755,-480.4695129,855.4700928,316.4067383,1
834.0050049,853.744812,-492.1882629,871.0950928,316.4067383,1
853.744812,845.5198975,-535.1571045,824.2200317,324.2192688,1
860.324707,852.0997925,-550.7821045,843.7513428,304.6879883,1
843.874939,853.744812,-519.5320435,832.0325317,304.6879883,1
871.8395996,868.5496216,-519.5320435,855.4700928,285.1567078,1
871.8395996,868.5496216,-531.2508545,847.6575928,285.1567078,1
853.744812,865.2596436,-531.2508545,847.6575928,285.1567078,1
876.7745361,868.5496216,-531.2508545,847.6575928,285.1567078,1
858.6797485,866.9046631,-531.2508545,843.7513428,296.8754578,1
847.164856,860.324707,-523.4382935,855.4700928,289.0629578,1
835.6500244,855.3897705,-523.4382935,847.6575928,289.0629578,1
852.0997925,858.6797485,-527.3446045,832.0325317,289.0629578,1
845.5198975,858.6797485,-531.2508545,851.5638428,292.9692078,1
855.3897705,860.324707,-519.5320435,832.0325317,289.0629578,1
858.6797485,855.3897705,-531.2508545,847.6575928,285.1567078,1
858.6797485,855.3897705,-527.3446045,843.7513428,285.1567078,1
837.2949829,848.8098755,-527.3446045,843.7513428,285.1567078,1
842.2299194,853.744812,-527.3446045,843.7513428,285.1567078,1
842.2299194,853.744812,-523.4382935,847.6575928,292.9692078,1
866.9046631,853.744812,-523.4382935,847.6575928,292.9692078,1
832.3600464,853.744812,-523.4382935,839.8450928,285.1567078,1
847.164856,858.6797485,-519.5320435,855.4700928,289.0629578,1
835.6500244,860.324707,-519.5320435,847.6575928,285.1567078,1
827.4251099,847.164856,-535.1571045,839.8450928,292.9692078,1
827.4251099,847.164856,-539.0633545,847.6575928,296.8754578,1
861.9697266,852.0997925,-539.0633545,847.6575928,296.8754578,1
824.1351318,835.6500244,-496.0945129,859.3763428,300.7817078,1
824.1351318,835.6500244,-503.9070435,843.7513428,292.9692078,1
829.0700684,838.9400024,-515.6257935,847.6575928,292.9692078,1
845.5198975,837.2949829,-515.6257935,847.6575928,292.9692078,1
860.324707,845.5198975,-531.2508545,839.8450928,289.0629578,1
838.9400024,845.5198975,-531.2508545,839.8450928,289.0629578,1
840.5849609,847.164856,-531.2508545,839.8450928,289.0629578,1
840.5849609,847.164856,-507.8132935,882.8139038,281.2504272,1
815.9102783,848.8098755,-500.0007935,863.2825928,292.9692078,1
855.3897705,855.3897705,-500.0007935,863.2825928,292.9692078,1
822.4901733,847.164856,-515.6257935,843.7513428,296.8754578,1
827.4251099,845.5198975,-515.6257935,843.7513428,296.8754578,1
857.034729,858.6797485,-539.0633545,839.8450928,296.8754578,1
857.034729,858.6797485,-519.5320435,855.4700928,300.7817078,1
842.2299194,853.744812,-519.5320435,855.4700928,300.7817078,1
830.7150879,852.0997925,-519.5320435,855.4700928,300.7817078,1
830.7150879,858.6797485,-507.8132935,851.5638428,289.0629578,1
822.4901733,857.034729,-507.8132935,851.5638428,289.0629578,1
866.9046631,850.454834,-515.6257935,851.5638428,277.3441772,1
830.7150879,857.034729,-507.8132935,847.6575928,281.2504272,1
830.7150879,857.034729,-503.9070435,855.4700928,285.1567078,1
834.0050049,850.454834,-507.8132935,855.4700928,285.1567078,1
837.2949829,852.0997925,-519.5320435,855.4700928,277.3441772,1
908.0291748,860.324707,-511.7195435,851.5638428,289.0629578,1
750.1110229,842.2299194,-511.7195435,851.5638428,289.0629578,1
750.1110229,842.2299194,-523.4382935,855.4700928,277.3441772,1
750.1110229,837.2949829,-507.8132935,847.6575928,300.7817078,1
750.1110229,834.0050049,-515.6257935,855.4700928,292.9692078,1
750.1110229,830.7150879,-511.7195435,851.5638428,289.0629578,1
748.4660645,822.4901733,-515.6257935,847.6575928,289.0629578,1
748.4660645,819.2001953,-515.6257935,847.6575928,289.0629578,1
748.4660645,832.3600464,-511.7195435,847.6575928,289.0629578,1
801.1054077,832.3600464,-507.8132935,843.7513428,292.9692078,1
853.744812,840.5849609,-523.4382935,847.6575928,292.9692078,1
801.1054077,832.3600464,-523.4382935,847.6575928,292.9692078,1
906.3841553,863.6146851,-519.5320435,847.6575928,292.9692078,1
906.3841553,863.6146851,-515.6257935,855.4700928,292.9692078,1
853.744812,857.034729,-515.6257935,855.4700928,292.9692078,1
906.3841553,853.744812,-515.6257935,851.5638428,292.9692078,1
853.744812,855.3897705,-511.7195435,843.7513428,289.0629578,1
748.4660645,827.4251099,-515.6257935,851.5638428,289.0629578,1
748.4660645,827.4251099,-507.8132935,851.5638428,292.9692078,1
853.744812,830.7150879,-507.8132935,851.5638428,292.9692078,1
829.0700684,834.0050049,-527.3446045,843.7513428,296.8754578,1
850.454834,852.0997925,-550.7821045,847.6575928,222.656601,1
850.454834,852.0997925,-542.9696045,851.5638428,214.8440857,1
847.164856,850.454834,-539.0633545,867.1888428,214.8440857,1
850.454834,850.454834,-539.0633545,867.1888428,214.8440857,1
830.7150879,852.0997925,-539.0633545,867.1888428,214.8440857,1
855.3897705,838.9400024,-550.7821045,847.6575928,195.3128052,1
870.1945801,837.2949829,-554.6883545,847.6575928,195.3128052,1
870.1945801,837.2949829,-542.9696045,835.9387817,210.9378357,1
840.5849609,842.2299194,-542.9696045,835.9387817,210.9378357,1
840.5849609,842.2299194,-539.0633545,835.9387817,199.2190552,1
822.4901733,848.8098755,-531.2508545,835.9387817,199.2190552,1
835.6500244,843.874939,-535.1571045,875.0013428,187.5002899,1
845.5198975,845.5198975,-542.9696045,878.9076538,179.6877747,1
850.454834,848.8098755,-550.7821045,863.2825928,171.8752747,1
825.7801514,863.6146851,-550.7821045,863.2825928,171.8752747,1
837.2949829,863.6146851,-550.7821045,863.2825928,171.8752747,1
837.2949829,863.6146851,-550.7821045,859.3763428,152.3439941,1
853.744812,853.744812,-542.9696045,851.5638428,156.2502441,1
838.9400024,848.8098755,-531.2508545,863.2825928,156.2502441,1
842.2299194,850.454834,-531.2508545,863.2825928,156.2502441,1
838.9400024,855.3897705,-542.9696045,867.1888428,160.1564941,1
842.2299194,853.744812,-542.9696045,867.1888428,164.0627594,1
848.8098755,850.454834,-542.9696045,867.1888428,171.8752747,1
866.9046631,852.0997925,-542.9696045,867.1888428,171.8752747,1
861.9697266,853.744812,-542.9696045,871.0950928,179.6877747,1
863.6146851,852.0997925,-550.7821045,867.1888428,171.8752747,1
863.6146851,852.0997925,-539.0633545,855.4700928,175.7815247,1
850.454834,852.0997925,-539.0633545,855.4700928,175.7815247,1
858.6797485,847.164856,-535.1571045,867.1888428,167.9690094,1
847.164856,847.164856,-546.8758545,871.0950928,171.8752747,1
829.0700684,847.164856,-546.8758545,871.0950928,171.8752747,1
858.6797485,848.8098755,-531.2508545,867.1888428,175.7815247,1
832.3600464,850.454834,-542.9696045,867.1888428,175.7815247,1
848.8098755,847.164856,-539.0633545,863.2825928,179.6877747,1
837.2949829,850.454834,-539.0633545,863.2825928,179.6877747,1
855.3897705,847.164856,-539.0633545,863.2825928,179.6877747,1
835.6500244,847.164856,-539.0633545,863.2825928,179.6877747,1
835.6500244,847.164856,-542.9696045,859.3763428,183.5940399,1
837.2949829,850.454834,-542.9696045,859.3763428,183.5940399,1
843.874939,850.454834,-542.9696045,859.3763428,179.6877747,1
843.874939,850.454834,-535.1571045,871.0950928,183.5940399,1
843.874939,850.454834,-527.3446045,871.0950928,183.5940399,1
847.164856,850.454834,-527.3446045,871.0950928,183.5940399,1
843.874939,848.8098755,-527.3446045,871.0950928,183.5940399,1
850.454834,838.9400024,-519.5320435,867.1888428,195.3128052,1
843.874939,834.0050049,-519.5320435,867.1888428,195.3128052,1
850.454834,848.8098755,-527.3446045,859.3763428,195.3128052,1
850.454834,848.8098755,-550.7821045,843.7513428,191.4065552,1
848.8098755,838.9400024,-566.4071655,855.4700928,187.5002899,1
848.8098755,838.9400024,-562.5008545,875.0013428,183.5940399,1
858.6797485,840.5849609,-535.1571045,855.4700928,191.4065552,1
835.6500244,850.454834,-519.5320435,859.3763428,187.5002899,1
840.5849609,855.3897705,-519.5320435,859.3763428,187.5002899,1
834.0050049,840.5849609,-562.5008545,824.2200317,218.7503357,1
850.454834,838.9400024,-550.7821045,843.7513428,230.4691162,1
855.3897705,845.5198975,-554.6883545,855.4700928,210.9378357,1
848.8098755,842.2299194,-546.8758545,851.5638428,218.7503357,1
848.8098755,842.2299194,-546.8758545,851.5638428,214.8440857,1
863.6146851,838.9400024,-546.8758545,851.5638428,214.8440857,1
863.6146851,845.5198975,-566.4071655,832.0325317,210.9378357,1
857.034729,853.744812,-539.0633545,851.5638428,218.7503357,1
842.2299194,855.3897705,-566.4071655,832.0325317,214.8440857,1
848.8098755,855.3897705,-566.4071655,832.0325317,214.8440857,1
843.874939,850.454834,-566.4071655,832.0325317,214.8440857,1
843.874939,850.454834,-554.6883545,855.4700928,218.7503357,1
842.2299194,845.5198975,-546.8758545,851.5638428,214.8440857,1
842.2299194,848.8098755,-546.8758545,847.6575928,214.8440857,1
855.3897705,848.8098755,-546.8758545,847.6575928,214.8440857,1
852.0997925,848.8098755,-550.7821045,855.4700928,218.7503357,1
852.0997925,848.8098755,-546.8758545,851.5638428,214.8440857,1
835.6500244,848.8098755,-546.8758545,851.5638428,214.8440857,1
825.7801514,847.164856,-550.7821045,855.4700928,218.7503357,1
852.0997925,850.454834,-566.4071655,847.6575928,207.0315704,1
840.5849609,850.454834,-546.8758545,847.6575928,210.9378357,1
845.5198975,832.3600464,-542.9696045,851.5638428,222.656601,1
837.2949829,852.0997925,-566.4071655,839.8450928,207.0315704,1
853.744812,848.8098755,-546.8758545,851.5638428,218.7503357,1
853.744812,848.8098755,-539.0633545,855.4700928,214.8440857,1
837.2949829,855.3897705,-542.9696045,851.5638428,218.7503357,1
838.9400024,866.9046631,-546.8758545,855.4700928,210.9378357,1
847.164856,861.9697266,-550.7821045,859.3763428,214.8440857,1
847.164856,861.9697266,-546.8758545,859.3763428,210.9378357,1
850.454834,860.324707,-546.8758545,859.3763428,210.9378357,1
842.2299194,855.3897705,-546.8758545,847.6575928,222.656601,1
835.6500244,852.0997925,-546.8758545,851.5638428,218.7503357,1
857.034729,858.6797485,-550.7821045,847.6575928,226.562851,1
845.5198975,853.744812,-558.5946045,851.5638428,214.8440857,1
835.6500244,848.8098755,-558.5946045,851.5638428,214.8440857,1
843.874939,850.454834,-554.6883545,855.4700928,210.9378357,1
827.4251099,860.324707,-539.0633545,839.8450928,222.656601,1
827.4251099,853.744812,-554.6883545,847.6575928,210.9378357,1
845.5198975,848.8098755,-554.6883545,847.6575928,210.9378357,1
845.5198975,848.8098755,-558.5946045,855.4700928,214.8440857,1
845.5198975,848.8098755,-558.5946045,851.5638428,210.9378357,1
840.5849609,838.9400024,-539.0633545,855.4700928,210.9378357,1
855.3897705,850.454834,-539.0633545,855.4700928,210.9378357,1
843.874939,852.0997925,-539.0633545,855.4700928,210.9378357,1
853.744812,850.454834,-542.9696045,855.4700928,203.1253204,1
843.874939,852.0997925,-554.6883545,855.4700928,195.3128052,1
838.9400024,847.164856,-554.6883545,855.4700928,195.3128052,1
843.874939,838.9400024,-527.3446045,843.7513428,214.8440857,1
838.9400024,843.874939,-539.0633545,859.3763428,210.9378357,1
837.2949829,847.164856,-546.8758545,859.3763428,199.2190552,1
830.7150879,845.5198975,-546.8758545,859.3763428,199.2190552,1
837.2949829,843.874939,-535.1571045,890.6264038,207.0315704,1
842.2299194,835.6500244,-542.9696045,839.8450928,191.4065552,1
848.8098755,834.0050049,-542.9696045,839.8450928,191.4065552,1
838.9400024,843.874939,-542.9696045,839.8450928,191.4065552,1
837.2949829,837.2949829,-527.3446045,871.0950928,203.1253204,1
837.2949829,837.2949829,-523.4382935,871.0950928,207.0315704,1
829.0700684,850.454834,-515.6257935,871.0950928,214.8440857,1
845.5198975,848.8098755,-539.0633545,851.5638428,207.0315704,1
842.2299194,847.164856,-539.0633545,851.5638428,207.0315704,1
834.0050049,850.454834,-546.8758545,863.2825928,207.0315704,1
857.034729,850.454834,-542.9696045,867.1888428,210.9378357,1
837.2949829,848.8098755,-519.5320435,875.0013428,222.656601,1
834.0050049,845.5198975,-535.1571045,867.1888428,214.8440857,1
825.7801514,853.744812,-484.3757629,871.0950928,238.2816162,1
789.5905762,881.7094727,-523.4382935,847.6575928,195.3128052,1
781.3656616,880.0644531,-519.5320435,855.4700928,238.2816162,1
820.8452148,847.164856,-511.7195435,863.2825928,273.4379272,1
820.8452148,847.164856,-515.6257935,867.1888428,269.5316772,1
830.7150879,843.874939,-515.6257935,867.1888428,269.5316772,1
838.9400024,842.2299194,-515.6257935,867.1888428,269.5316772,1
850.454834,842.2299194,-500.0007935,871.0950928,285.1567078,1
825.7801514,845.5198975,-500.0007935,871.0950928,285.1567078,1
837.2949829,842.2299194,-507.8132935,871.0950928,289.0629578,1
835.6500244,842.2299194,-507.8132935,871.0950928,289.0629578,1
832.3600464,842.2299194,-480.4695129,863.2825928,296.8754578,1
853.744812,832.3600464,-480.4695129,882.8139038,277.3441772,1
840.5849609,843.874939,-472.6569824,878.9076538,289.0629578,1
840.5849609,850.454834,-472.6569824,878.9076538,289.0629578,1
824.1351318,845.5198975,-503.9070435,871.0950928,265.6254272,1
848.8098755,824.1351318,-500.0007935,867.1888428,269.5316772,1
853.744812,819.2001953,-488.2820129,875.0013428,277.3441772,1
853.744812,819.2001953,-476.5632324,875.0013428,277.3441772,1
853.744812,820.8452148,-476.5632324,875.0013428,277.3441772,1
845.5198975,820.8452148,-476.5632324,875.0013428,277.3441772,1
863.6146851,807.6853638,-476.5632324,875.0013428,277.3441772,1
876.7745361,797.8154907,-484.3757629,871.0950928,269.5316772,1
880.0644531,796.1704712,-484.3757629,878.9076538,261.7191467,1
866.9046631,812.6203003,-488.2820129,875.0013428,257.8128967,1
866.9046631,812.6203003,-496.0945129,871.0950928,250.0003967,1
840.5849609,845.5198975,-496.0945129,871.0950928,250.0003967,1
838.9400024,855.3897705,-492.1882629,871.0950928,238.2816162,1
834.0050049,858.6797485,-496.0945129,875.0013428,230.4691162,1
840.5849609,853.744812,-500.0007935,867.1888428,234.3753662,1
810.9752808,880.0644531,-503.9070435,867.1888428,222.656601,1
802.7504272,884.9994507,-503.9070435,867.1888428,222.656601,1
809.3303223,875.1295166,-503.9070435,878.9076538,230.4691162,1
809.3303223,868.5496216,-496.0945129,871.0950928,238.2816162,1
809.3303223,868.5496216,-527.3446045,867.1888428,230.4691162,1
824.1351318,866.9046631,-527.3446045,867.1888428,230.4691162,1
820.8452148,860.324707,-527.3446045,867.1888428,230.4691162,1
834.0050049,848.8098755,-500.0007935,882.8139038,238.2816162,1
830.7150879,850.454834,-500.0007935,882.8139038,238.2816162,1
830.7150879,847.164856,-488.2820129,878.9076538,246.0941315,1
830.7150879,847.164856,-503.9070435,878.9076538,238.2816162,1
824.1351318,853.744812,-503.9070435,878.9076538,238.2816162,1
840.5849609,852.0997925,-507.8132935,882.8139038,238.2816162,1
840.5849609,852.0997925,-507.8132935,867.1888428,230.4691162,1
834.0050049,850.454834,-507.8132935,871.0950928,222.656601,1
837.2949829,848.8098755,-507.8132935,871.0950928,222.656601,1
845.5198975,850.454834,-484.3757629,886.7201538,238.2816162,1
843.874939,848.8098755,-496.0945129,875.0013428,238.2816162,1
843.874939,848.8098755,-503.9070435,871.0950928,238.2816162,1
838.9400024,845.5198975,-503.9070435,867.1888428,238.2816162,1
838.9400024,843.874939,-500.0007935,871.0950928,238.2816162,1
838.9400024,843.874939,-496.0945129,871.0950928,242.1878815,1
837.2949829,843.874939,-496.0945129,871.0950928,242.1878815,1
843.874939,845.5198975,-496.0945129,871.0950928,242.1878815,1
845.5198975,850.454834,-496.0945129,886.7201538,238.2816162,1
838.9400024,850.454834,-503.9070435,882.8139038,230.4691162,1
842.2299194,850.454834,-492.1882629,867.1888428,238.2816162,1
840.5849609,853.744812,-488.2820129,875.0013428,242.1878815,1
835.6500244,857.034729,-496.0945129,875.0013428,230.4691162,1
840.5849609,850.454834,-500.0007935,875.0013428,234.3753662,1
840.5849609,852.0997925,-500.0007935,878.9076538,246.0941315,1
837.2949829,853.744812,-500.0007935,878.9076538,246.0941315,1
837.2949829,853.744812,-507.8132935,875.0013428,234.3753662,1
847.164856,857.034729,-507.8132935,886.7201538,234.3753662,1
830.7150879,837.2949829,-519.5320435,878.9076538,222.656601,1
837.2949829,848.8098755,-519.5320435,878.9076538,222.656601,1
837.2949829,848.8098755,-515.6257935,875.0013428,214.8440857,1
845.5198975,866.9046631,-511.7195435,886.7201538,195.3128052,1
855.3897705,870.1945801,-511.7195435,886.7201538,195.3128052,1
863.6146851,855.3897705,-511.7195435,886.7201538,195.3128052,1
852.0997925,845.5198975,-503.9070435,863.2825928,167.9690094,1
850.454834,847.164856,-492.1882629,890.6264038,156.2502441,1
848.8098755,838.9400024,-496.0945129,878.9076538,152.3439941,1
855.3897705,853.744812,-511.7195435,886.7201538,148.4377289,1
855.3897705,853.744812,-507.8132935,878.9076538,152.3439941,1
845.5198975,855.3897705,-507.8132935,878.9076538,152.3439941,1
848.8098755,858.6797485,-507.8132935,878.9076538,152.3439941,1
848.8098755,845.5198975,-496.0945129,894.5326538,152.3439941,1
858.6797485,852.0997925,-492.1882629,902.3451538,156.2502441,1
852.0997925,853.744812,-492.1882629,902.3451538,156.2502441,1
838.9400024,857.034729,-515.6257935,882.8139038,160.1564941,1
855.3897705,855.3897705,-519.5320435,882.8139038,164.0627594,1
848.8098755,855.3897705,-507.8132935,886.7201538,167.9690094,1
850.454834,852.0997925,-507.8132935,886.7201538,167.9690094,1
852.0997925,857.034729,-503.9070435,882.8139038,175.7815247,1
861.9697266,853.744812,-507.8132935,882.8139038,175.7815247,1
842.2299194,852.0997925,-507.8132935,882.8139038,175.7815247,1
857.034729,850.454834,-519.5320435,886.7201538,175.7815247,1
857.034729,850.454834,-523.4382935,886.7201538,175.7815247,1
840.5849609,857.034729,-523.4382935,886.7201538,175.7815247,1
848.8098755,858.6797485,-519.5320435,878.9076538,183.5940399,1
850.454834,857.034729,-511.7195435,886.7201538,183.5940399,1
853.744812,857.034729,-515.6257935,882.8139038,179.6877747,1
850.454834,847.164856,-515.6257935,882.8139038,179.6877747,1
845.5198975,847.164856,-519.5320435,886.7201538,167.9690094,1
842.2299194,852.0997925,-519.5320435,886.7201538,167.9690094,1
842.2299194,852.0997925,-503.9070435,878.9076538,191.4065552,1
853.744812,840.5849609,-503.9070435,878.9076538,191.4065552,1
845.5198975,852.0997925,-503.9070435,878.9076538,191.4065552,1
832.3600464,865.2596436,-515.6257935,875.0013428,191.4065552,1
835.6500244,865.2596436,-515.6257935,875.0013428,203.1253204,1
848.8098755,853.744812,-519.5320435,875.0013428,191.4065552,1
847.164856,855.3897705,-527.3446045,878.9076538,195.3128052,1
850.454834,852.0997925,-527.3446045,875.0013428,195.3128052,1
860.324707,845.5198975,-496.0945129,878.9076538,210.9378357,1
853.744812,850.454834,-496.0945129,878.9076538,210.9378357,1
832.3600464,880.0644531,-523.4382935,867.1888428,195.3128052,1
815.9102783,883.3544312,-523.4382935,867.1888428,195.3128052,1
801.1054077,883.3544312,-523.4382935,867.1888428,195.3128052,1
827.4251099,860.324707,-496.0945129,878.9076538,226.562851,1
834.0050049,848.8098755,-496.0945129,878.9076538,226.562851,1
837.2949829,845.5198975,-519.5320435,867.1888428,207.0315704,1
835.6500244,840.5849609,-519.5320435,871.0950928,222.656601,1
835.6500244,840.5849609,-511.7195435,875.0013428,230.4691162,1
838.9400024,845.5198975,-511.7195435,875.0013428,230.4691162,1
848.8098755,847.164856,-511.7195435,875.0013428,230.4691162,1
834.0050049,842.2299194,-511.7195435,875.0013428,234.3753662,1
840.5849609,845.5198975,-500.0007935,882.8139038,234.3753662,1
829.0700684,845.5198975,-496.0945129,882.8139038,238.2816162,1
838.9400024,850.454834,-496.0945129,882.8139038,238.2816162,1
835.6500244,848.8098755,-500.0007935,875.0013428,242.1878815,1
838.9400024,845.5198975,-500.0007935,875.0013428,242.1878815,1
848.8098755,847.164856,-496.0945129,875.0013428,234.3753662,1
840.5849609,850.454834,-500.0007935,871.0950928,250.0003967,1
847.164856,838.9400024,-500.0007935,871.0950928,250.0003967,1
857.034729,842.2299194,-492.1882629,886.7201538,257.8128967,1
857.034729,842.2299194,-488.2820129,882.8139038,265.6254272,1
857.034729,842.2299194,-484.3757629,867.1888428,273.4379272,1
848.8098755,842.2299194,-484.3757629,867.1888428,273.4379272,1
840.5849609,843.874939,-484.3757629,867.1888428,273.4379272,1
835.6500244,837.2949829,-500.0007935,863.2825928,277.3441772,1
852.0997925,842.2299194,-476.5632324,882.8139038,277.3441772,1
855.3897705,837.2949829,-476.5632324,882.8139038,277.3441772,1
857.034729,840.5849609,-476.5632324,882.8139038,277.3441772,1
843.874939,852.0997925,-468.7507324,855.4700928,289.0629578,1
843.874939,852.0997925,-460.9382324,855.4700928,285.1567078,1
857.034729,850.454834,-488.2820129,875.0013428,261.7191467,1
842.2299194,843.874939,-488.2820129,875.0013428,261.7191467,1
834.0050049,853.744812,-488.2820129,878.9076538,289.0629578,1
835.6500244,871.8395996,-484.3757629,859.3763428,292.9692078,1
852.0997925,847.164856,-480.4695129,859.3763428,273.4379272,1
842.2299194,850.454834,-480.4695129,859.3763428,273.4379272,1
845.5198975,860.324707,-500.0007935,875.0013428,273.4379272,1
837.2949829,855.3897705,-500.0007935,859.3763428,277.3441772,1
850.454834,853.744812,-488.2820129,878.9076538,269.5316772,1
840.5849609,853.744812,-500.0007935,859.3763428,273.4379272,1
840.5849609,853.744812,-503.9070435,863.2825928,277.3441772,1
837.2949829,845.5198975,-503.9070435,863.2825928,277.3441772,1
845.5198975,855.3897705,-496.0945129,875.0013428,265.6254272,1
842.2299194,852.0997925,-496.0945129,875.0013428,265.6254272,1
852.0997925,845.5198975,-476.5632324,859.3763428,277.3441772,1
840.5849609,845.5198975,-460.9382324,882.8139038,281.2504272,1
835.6500244,840.5849609,-460.9382324,882.8139038,281.2504272,1
858.6797485,857.034729,-472.6569824,886.7201538,273.4379272,1
858.6797485,857.034729,-503.9070435,843.7513428,277.3441772,1
857.034729,848.8098755,-523.4382935,835.9387817,277.3441772,1
850.454834,855.3897705,-476.5632324,875.0013428,277.3441772,1
843.874939,850.454834,-464.8444824,886.7201538,269.5316772,1
843.874939,850.454834,-480.4695129,875.0013428,277.3441772,1
847.164856,847.164856,-500.0007935,878.9076538,273.4379272,1
845.5198975,853.744812,-500.0007935,878.9076538,273.4379272,1
840.5849609,853.744812,-500.0007935,878.9076538,273.4379272,1
837.2949829,847.164856,-476.5632324,875.0013428,273.4379272,1
848.8098755,842.2299194,-476.5632324,875.0013428,273.4379272,1
853.744812,852.0997925,-476.5632324,875.0013428,273.4379272,1
835.6500244,848.8098755,-492.1882629,871.0950928,277.3441772,1
837.2949829,848.8098755,-484.3757629,875.0013428,273.4379272,1
842.2299194,842.2299194,-480.4695129,871.0950928,277.3441772,1
842.2299194,842.2299194,-488.2820129,871.0950928,277.3441772,1
845.5198975,848.8098755,-488.2820129,871.0950928,277.3441772,1
845.5198975,842.2299194,-488.2820129,871.0950928,277.3441772,1
857.034729,847.164856,-492.1882629,859.3763428,289.0629578,1
848.8098755,843.874939,-492.1882629,867.1888428,289.0629578,1
889.9343872,799.4604492,-492.1882629,867.1888428,281.2504272,1
871.8395996,815.9102783,-488.2820129,851.5638428,281.2504272,1
871.8395996,815.9102783,-496.0945129,863.2825928,277.3441772,1
871.8395996,815.9102783,-503.9070435,871.0950928,269.5316772,1
857.034729,817.5552368,-503.9070435,871.0950928,269.5316772,1
843.874939,840.5849609,-503.9070435,871.0950928,269.5316772,1
834.0050049,850.454834,-480.4695129,871.0950928,273.4379272,1
829.0700684,845.5198975,-480.4695129,871.0950928,273.4379272,1
835.6500244,852.0997925,-480.4695129,871.0950928,273.4379272,1
847.164856,855.3897705,-503.9070435,875.0013428,269.5316772,1
817.5552368,852.0997925,-503.9070435,871.0950928,269.5316772,1
855.3897705,855.3897705,-492.1882629,863.2825928,277.3441772,1
830.7150879,848.8098755,-492.1882629,867.1888428,261.7191467,1
830.7150879,848.8098755,-488.2820129,859.3763428,265.6254272,1
842.2299194,848.8098755,-488.2820129,859.3763428,265.6254272,1
830.7150879,850.454834,-500.0007935,871.0950928,261.7191467,1
829.0700684,834.0050049,-496.0945129,871.0950928,261.7191467,1
843.874939,840.5849609,-496.0945129,871.0950928,261.7191467,1
845.5198975,852.0997925,-519.5320435,863.2825928,253.9066467,1
812.6203003,847.164856,-496.0945129,871.0950928,277.3441772,1
812.6203003,847.164856,-511.7195435,871.0950928,269.5316772,1
843.874939,852.0997925,-511.7195435,871.0950928,269.5316772,1
819.2001953,843.874939,-511.7195435,871.0950928,269.5316772,1
853.744812,847.164856,-523.4382935,859.3763428,261.7191467,1
852.0997925,848.8098755,-511.7195435,843.7513428,265.6254272,1
830.7150879,847.164856,-511.7195435,843.7513428,265.6254272,1
829.0700684,847.164856,-511.7195435,843.7513428,265.6254272,1
837.2949829,840.5849609,-539.0633545,851.5638428,257.8128967,1
837.2949829,840.5849609,-539.0633545,843.7513428,253.9066467,1
820.8452148,842.2299194,-539.0633545,843.7513428,253.9066467,1
857.034729,843.874939,-539.0633545,843.7513428,253.9066467,1
834.0050049,845.5198975,-527.3446045,855.4700928,253.9066467,1
835.6500244,832.3600464,-527.3446045,855.4700928,253.9066467,1
855.3897705,837.2949829,-539.0633545,863.2825928,250.0003967,1
855.3897705,837.2949829,-542.9696045,855.4700928,257.8128967,1
837.2949829,832.3600464,-542.9696045,855.4700928,257.8128967,1
830.7150879,830.7150879,-531.2508545,843.7513428,265.6254272,1
830.7150879,830.7150879,-531.2508545,851.5638428,265.6254272,1
838.9400024,835.6500244,-531.2508545,851.5638428,265.6254272,1
817.5552368,827.4251099,-531.2508545,851.5638428,265.6254272,1
842.2299194,837.2949829,-535.1571045,839.8450928,265.6254272,1
842.2299194,837.2949829,-539.0633545,847.6575928,273.4379272,1
820.8452148,834.0050049,-539.0633545,847.6575928,273.4379272,1
829.0700684,837.2949829,-539.0633545,847.6575928,273.4379272,1
850.454834,830.7150879,-523.4382935,863.2825928,250.0003967,1
835.6500244,834.0050049,-515.6257935,859.3763428,261.7191467,1
840.5849609,840.5849609,-515.6257935,859.3763428,261.7191467,1
840.5849609,840.5849609,-511.7195435,855.4700928,277.3441772,1
853.744812,847.164856,-511.7195435,855.4700928,277.3441772,1
837.2949829,838.9400024,-550.7821045,847.6575928,277.3441772,1
837.2949829,838.9400024,-546.8758545,835.9387817,277.3441772,1
853.744812,852.0997925,-523.4382935,851.5638428,257.8128967,1
791.2355347,866.9046631,-496.0945129,878.9076538,246.0941315,1
837.2949829,863.6146851,-496.0945129,878.9076538,246.0941315,1
810.9752808,866.9046631,-542.9696045,839.8450928,257.8128967,1
814.2652588,858.6797485,-519.5320435,843.7513428,269.5316772,1
840.5849609,852.0997925,-519.5320435,843.7513428,269.5316772,1
843.874939,853.744812,-511.7195435,847.6575928,269.5316772,1
814.2652588,853.744812,-511.7195435,847.6575928,269.5316772,1
824.1351318,845.5198975,-535.1571045,839.8450928,261.7191467,1
822.4901733,845.5198975,-527.3446045,871.0950928,265.6254272,1
850.454834,857.034729,-535.1571045,847.6575928,281.2504272,1
850.454834,857.034729,-539.0633545,847.6575928,281.2504272,1
825.7801514,843.874939,-527.3446045,847.6575928,277.3441772,1
830.7150879,845.5198975,-515.6257935,835.9387817,277.3441772,1
829.0700684,840.5849609,-515.6257935,835.9387817,277.3441772,1
827.4251099,840.5849609,-539.0633545,894.5326538,265.6254272,1
827.4251099,840.5849609,-554.6883545,894.5326538,234.3753662,1
834.0050049,843.874939,-554.6883545,894.5326538,234.3753662,1
809.3303223,834.0050049,-472.6569824,828.1262817,296.8754578,1
853.744812,843.874939,-535.1571045,859.3763428,277.3441772,1
838.9400024,842.2299194,-539.0633545,851.5638428,261.7191467,1
840.5849609,842.2299194,-519.5320435,847.6575928,265.6254272,1
840.5849609,842.2299194,-492.1882629,878.9076538,273.4379272,1
838.9400024,842.2299194,-492.1882629,863.2825928,281.2504272,1
845.5198975,845.5198975,-492.1882629,863.2825928,281.2504272,1
825.7801514,843.874939,-523.4382935,847.6575928,289.0629578,1
857.034729,848.8098755,-535.1571045,851.5638428,273.4379272,1
835.6500244,847.164856,-507.8132935,855.4700928,277.3441772,1
837.2949829,845.5198975,-507.8132935,855.4700928,277.3441772,1
845.5198975,842.2299194,-515.6257935,855.4700928,285.1567078,1
825.7801514,845.5198975,-515.6257935,855.4700928,285.1567078,1
825.7801514,845.5198975,-519.5320435,855.4700928,273.4379272,1
825.7801514,845.5198975,-511.7195435,855.4700928,277.3441772,1
824.1351318,852.0997925,-511.7195435,855.4700928,277.3441772,1
863.6146851,843.874939,-519.5320435,839.8450928,281.2504272,1
863.6146851,843.874939,-519.5320435,878.9076538,269.5316772,1
838.9400024,842.2299194,-519.5320435,878.9076538,269.5316772,1
827.4251099,847.164856,-500.0007935,882.8139038,273.4379272,1
847.164856,847.164856,-484.3757629,875.0013428,273.4379272,1
835.6500244,840.5849609,-484.3757629,875.0013428,273.4379272,1
807.6853638,840.5849609,-535.1571045,855.4700928,273.4379272,1
847.164856,837.2949829,-535.1571045,855.4700928,273.4379272,1
857.034729,843.874939,-492.1882629,875.0013428,273.4379272,1
857.034729,842.2299194,-492.1882629,875.0013428,273.4379272,1
815.9102783,842.2299194,-519.5320435,839.8450928,281.2504272,1
837.2949829,838.9400024,-523.4382935,855.4700928,277.3441772,1
812.6203003,850.454834,-523.4382935,855.4700928,277.3441772,1
848.8098755,843.874939,-507.8132935,867.1888428,281.2504272,1
822.4901733,840.5849609,-507.8132935,863.2825928,285.1567078,1
822.4901733,840.5849609,-511.7195435,859.3763428,285.1567078,1
822.4901733,840.5849609,-511.7195435,859.3763428,281.2504272,1
843.874939,842.2299194,-511.7195435,859.3763428,281.2504272,1
845.5198975,843.874939,-515.6257935,839.8450928,281.2504272,1
845.5198975,843.874939,-527.3446045,851.5638428,273.4379272,1
834.0050049,842.2299194,-527.3446045,851.5638428,273.4379272,1
865.2596436,847.164856,-527.3446045,851.5638428,273.4379272,1
865.2596436,837.2949829,-496.0945129,878.9076538,289.0629578,1
850.454834,837.2949829,-496.0945129,878.9076538,289.0629578,1
815.9102783,834.0050049,-515.6257935,847.6575928,281.2504272,1
850.454834,843.874939,-515.6257935,847.6575928,281.2504272,1
860.324707,842.2299194,-515.6257935,847.6575928,281.2504272,1
830.7150879,842.2299194,-488.2820129,867.1888428,281.2504272,1
837.2949829,855.3897705,-519.5320435,847.6575928,289.0629578,1
837.2949829,855.3897705,-515.6257935,851.5638428,292.9692078,1
860.324707,853.744812,-507.8132935,843.7513428,300.7817078,1
858.6797485,850.454834,-507.8132935,843.7513428,300.7817078,1
824.1351318,850.454834,-484.3757629,886.7201538,265.6254272,1
845.5198975,850.454834,-484.3757629,886.7201538,265.6254272,1
837.2949829,842.2299194,-484.3757629,886.7201538,265.6254272,1
837.2949829,842.2299194,-468.7507324,808.5950317,363.2818298,1
832.3600464,843.874939,-500.0007935,914.0639038,285.1567078,1
842.2299194,842.2299194,-500.0007935,914.0639038,285.1567078,1
834.0050049,845.5198975,-464.8444824,875.0013428,285.1567078,1
810.9752808,843.874939,-464.8444824,875.0013428,285.1567078,1
819.2001953,838.9400024,-519.5320435,847.6575928,328.1255188,1
835.6500244,837.2949829,-519.5320435,847.6575928,328.1255188,1
832.3600464,842.2299194,-410.1568909,890.6264038,292.9692078,1
755.0459595,832.3600464,-480.4695129,871.0950928,296.8754578,1
743.5311279,812.6203003,-531.2508545,804.6887817,335.9380188,1
759.980896,806.0403442,-531.2508545,804.6887817,335.9380188,1
733.6612549,764.9158325,-531.2508545,804.6887817,335.9380188,1
796.1704712,792.8805542,-531.2508545,867.1888428,324.2192688,1
784.6556396,804.3953857,-531.2508545,867.1888428,324.2192688,1
796.1704712,781.3656616,-531.2508545,847.6575928,304.6879883,1
792.8805542,809.3303223,-500.0007935,859.3763428,304.6879883,1
792.8805542,809.3303223,-496.0945129,847.6575928,328.1255188,1
791.2355347,814.2652588,-496.0945129,847.6575928,328.1255188,1
789.5905762,822.4901733,-519.5320435,839.8450928,289.0629578,1
759.980896,824.1351318,-503.9070435,820.3137817,289.0629578,1
761.6259155,832.3600464,-496.0945129,828.1262817,296.8754578,1
761.6259155,832.3600464,-507.8132935,851.5638428,296.8754578,1
779.7207031,834.0050049,-507.8132935,855.4700928,281.2504272,1
776.4307251,827.4251099,-492.1882629,863.2825928,304.6879883,1
768.2058105,830.7150879,-492.1882629,863.2825928,304.6879883,1
773.1407471,842.2299194,-488.2820129,878.9076538,312.5004883,1
776.4307251,843.874939,-507.8132935,851.5638428,296.8754578,1
745.1760864,876.7745361,-507.8132935,851.5638428,296.8754578,1
738.5961914,875.1295166,-542.9696045,808.5950317,304.6879883,1
766.5608521,857.034729,-542.9696045,808.5950317,304.6879883,1
766.5608521,840.5849609,-511.7195435,875.0013428,316.4067383,1
766.5608521,840.5849609,-511.7195435,871.0950928,328.1255188,1
766.5608521,840.5849609,-492.1882629,878.9076538,328.1255188,1
779.7207031,835.6500244,-500.0007935,839.8450928,328.1255188,1
791.2355347,829.0700684,-500.0007935,839.8450928,328.1255188,1
768.2058105,827.4251099,-527.3446045,828.1262817,328.1255188,1
773.1407471,824.1351318,-527.3446045,828.1262817,328.1255188,1
766.5608521,820.8452148,-484.3757629,839.8450928,335.9380188,1
755.0459595,814.2652588,-484.3757629,839.8450928,335.9380188,1
741.8861084,819.2001953,-484.3757629,855.4700928,339.8442688,1
741.8861084,819.2001953,-507.8132935,835.9387817,335.9380188,1
748.4660645,817.5552368,-527.3446045,820.3137817,335.9380188,1
738.5961914,814.2652588,-515.6257935,847.6575928,343.7505493,1
758.3359375,806.0403442,-515.6257935,847.6575928,343.7505493,1
753.401001,806.0403442,-503.9070435,875.0013428,335.9380188,1
755.0459595,806.0403442,-484.3757629,816.4075317,343.7505493,1
773.1407471,819.2001953,-484.3757629,816.4075317,343.7505493,1
766.5608521,824.1351318,-546.8758545,812.5012817,359.3755493,1
763.270874,824.1351318,-546.8758545,812.5012817,359.3755493,1
763.270874,824.1351318,-503.9070435,839.8450928,347.6567993,1
769.8508301,827.4251099,-503.9070435,839.8450928,347.6567993,1
778.0756836,824.1351318,-515.6257935,863.2825928,335.9380188,1
783.0106201,824.1351318,-550.7821045,832.0325317,363.2818298,1
783.0106201,824.1351318,-554.6883545,800.7825317,375.0005798,1
776.4307251,837.2949829,-554.6883545,800.7825317,375.0005798,1
797.8154907,825.7801514,-515.6257935,855.4700928,351.5630493,1
797.8154907,825.7801514,-531.2508545,847.6575928,339.8442688,1
773.1407471,834.0050049,-496.0945129,832.0325317,367.1880798,1
786.3005981,832.3600464,-496.0945129,832.0325317,367.1880798,1
778.0756836,837.2949829,-496.0945129,832.0325317,367.1880798,1
824.1351318,810.9752808,-511.7195435,839.8450928,335.9380188,1
842.2299194,812.6203003,-480.4695129,812.5012817,375.0005798,1
804.3953857,820.8452148,-570.3134155,816.4075317,312.5004883,1
810.9752808,842.2299194,-542.9696045,808.5950317,320.3129883,1
840.5849609,860.324707,-542.9696045,808.5950317,320.3129883,1
820.8452148,871.8395996,-539.0633545,843.7513428,253.9066467,1
835.6500244,865.2596436,-539.0633545,843.7513428,253.9066467,1
843.874939,868.5496216,-496.0945129,843.7513428,289.0629578,1
814.2652588,875.1295166,-558.5946045,804.6887817,285.1567078,1
829.0700684,875.1295166,-535.1571045,843.7513428,250.0003967,1
829.0700684,875.1295166,-527.3446045,886.7201538,257.8128967,1
832.3600464,868.5496216,-527.3446045,886.7201538,257.8128967,1
843.874939,866.9046631,-527.3446045,886.7201538,257.8128967,1
837.2949829,865.2596436,-527.3446045,886.7201538,257.8128967,1
835.6500244,870.1945801,-511.7195435,863.2825928,285.1567078,1
830.7150879,870.1945801,-511.7195435,863.2825928,285.1567078,1
837.2949829,866.9046631,-519.5320435,824.2200317,257.8128967,1
829.0700684,868.5496216,-464.8444824,835.9387817,277.3441772,1
837.2949829,865.2596436,-464.8444824,835.9387817,277.3441772,1
799.4604492,894.8693237,-523.4382935,863.2825928,289.0629578,1
799.4604492,894.8693237,-535.1571045,859.3763428,273.4379272,1
783.0106201,901.4492188,-535.1571045,859.3763428,273.4379272,1
792.8805542,898.1592407,-535.1571045,859.3763428,273.4379272,1
801.1054077,889.9343872,-527.3446045,871.0950928,300.7817078,1
815.9102783,875.1295166,-527.3446045,871.0950928,300.7817078,1
819.2001953,873.4845581,-527.3446045,871.0950928,300.7817078,1
814.2652588,876.7745361,-542.9696045,878.9076538,324.2192688,1
838.9400024,873.4845581,-511.7195435,843.7513428,292.9692078,1
824.1351318,873.4845581,-523.4382935,832.0325317,265.6254272,1
840.5849609,866.9046631,-527.3446045,882.8139038,281.2504272,1
840.5849609,866.9046631,-519.5320435,937.5014648,289.0629578,1
840.5849609,866.9046631,-507.8132935,894.5326538,296.8754578,1
838.9400024,863.6146851,-507.8132935,894.5326538,296.8754578,1
845.5198975,863.6146851,-539.0633545,843.7513428,308.5942383,1
838.9400024,863.6146851,-539.0633545,843.7513428,308.5942383,1
830.7150879,866.9046631,-527.3446045,855.4700928,312.5004883,1
830.7150879,866.9046631,-539.0633545,843.7513428,300.7817078,1
842.2299194,850.454834,-542.9696045,839.8450928,308.5942383,1
873.4845581,820.8452148,-539.0633545,839.8450928,324.2192688,1
822.4901733,853.744812,-500.0007935,875.0013428,277.3441772,1
838.9400024,863.6146851,-531.2508545,871.0950928,242.1878815,1
853.744812,870.1945801,-523.4382935,867.1888428,226.562851,1
843.874939,871.8395996,-523.4382935,867.1888428,226.562851,1
827.4251099,878.4194946,-523.4382935,867.1888428,226.562851,1
832.3600464,881.7094727,-535.1571045,843.7513428,203.1253204,1
834.0050049,886.6444092,-535.1571045,843.7513428,203.1253204,1
832.3600464,881.7094727,-535.1571045,843.7513428,210.9378357,1
832.3600464,881.7094727,-535.1571045,851.5638428,210.9378357,1
835.6500244,875.1295166,-535.1571045,851.5638428,210.9378357,1
832.3600464,868.5496216,-546.8758545,855.4700928,210.9378357,1
832.3600464,868.5496216,-550.7821045,847.6575928,210.9378357,1
815.9102783,873.4845581,-550.7821045,847.6575928,210.9378357,1
835.6500244,866.9046631,-550.7821045,847.6575928,210.9378357,1
812.6203003,865.2596436,-542.9696045,843.7513428,214.8440857,1
860.324707,863.6146851,-539.0633545,851.5638428,218.7503357,1
860.324707,863.6146851,-558.5946045,859.3763428,199.2190552,1
834.0050049,858.6797485,-558.5946045,859.3763428,199.2190552,1
834.0050049,870.1945801,-566.4071655,855.4700928,199.2190552,1
834.0050049,858.6797485,-558.5946045,851.5638428,207.0315704,1
860.324707,868.5496216,-554.6883545,843.7513428,214.8440857,1
843.874939,868.5496216,-554.6883545,847.6575928,214.8440857,1
855.3897705,865.2596436,-554.6883545,843.7513428,210.9378357,1
853.744812,865.2596436,-566.4071655,847.6575928,207.0315704,1
865.2596436,858.6797485,-566.4071655,847.6575928,207.0315704,1
845.5198975,858.6797485,-558.5946045,843.7513428,210.9378357,1
812.6203003,858.6797485,-550.7821045,847.6575928,203.1253204,1
812.6203003,858.6797485,-554.6883545,847.6575928,199.2190552,1
812.6203003,858.6797485,-550.7821045,843.7513428,203.1253204,1
865.2596436,860.324707,-550.7821045,843.7513428,203.1253204,1
838.9400024,855.3897705,-550.7821045,843.7513428,203.1253204,1
786.3005981,861.9697266,-562.5008545,839.8450928,203.1253204,1
891.5793457,876.7745361,-558.5946045,847.6575928,207.0315704,1
891.5793457,876.7745361,-554.6883545,859.3763428,207.0315704,1
838.9400024,843.874939,-546.8758545,855.4700928,203.1253204,1
838.9400024,855.3897705,-558.5946045,839.8450928,207.0315704,1
891.5793457,860.324707,-558.5946045,839.8450928,207.0315704,1
891.5793457,868.5496216,-539.0633545,871.0950928,210.9378357,1
944.218689,876.7745361,-539.0633545,871.0950928,210.9378357,1
786.3005981,857.034729,-550.7821045,851.5638428,203.1253204,1
786.3005981,873.4845581,-550.7821045,851.5638428,203.1253204,1
786.3005981,858.6797485,-535.1571045,851.5638428,199.2190552,1
838.9400024,866.9046631,-535.1571045,851.5638428,199.2190552,1
944.218689,863.6146851,-535.1571045,851.5638428,199.2190552,1
944.218689,875.1295166,-511.7195435,855.4700928,222.656601,1
838.9400024,893.2243042,-511.7195435,855.4700928,222.656601,1
802.7504272,904.7391968,-550.7821045,847.6575928,207.0315704,1
830.7150879,906.3841553,-550.7821045,847.6575928,207.0315704,1
771.4957886,914.6090698,-546.8758545,843.7513428,218.7503357,1
771.4957886,914.6090698,-539.0633545,847.6575928,234.3753662,1
771.4957886,914.6090698,-539.0633545,851.5638428,246.0941315,1
786.3005981,911.3190918,-539.0633545,851.5638428,246.0941315,1
799.4604492,909.6741333,-539.0633545,851.5638428,246.0941315,1
834.0050049,875.1295166,-566.4071655,835.9387817,246.0941315,1
834.0050049,868.5496216,-566.4071655,835.9387817,269.5316772,1
937.6387939,871.8395996,-535.1571045,851.5638428,296.8754578,1
884.9994507,868.5496216,-523.4382935,863.2825928,296.8754578,1
884.9994507,871.8395996,-515.6257935,859.3763428,304.6879883,1
929.4138794,848.8098755,-484.3757629,867.1888428,300.7817078,1
926.1239624,840.5849609,-484.3757629,867.1888428,300.7817078,1
896.5142822,834.0050049,-496.0945129,855.4700928,300.7817078,1
881.7094727,842.2299194,-496.0945129,855.4700928,300.7817078,1
908.0291748,835.6500244,-484.3757629,871.0950928,300.7817078,1
909.6741333,840.5849609,-484.3757629,871.0950928,300.7817078,1
876.7745361,838.9400024,-484.3757629,859.3763428,300.7817078,1
876.7745361,838.9400024,-480.4695129,859.3763428,304.6879883,1
880.0644531,847.164856,-496.0945129,863.2825928,300.7817078,1
873.4845581,840.5849609,-496.0945129,863.2825928,300.7817078,1
878.4194946,845.5198975,-488.2820129,863.2825928,300.7817078,1
860.324707,838.9400024,-484.3757629,863.2825928,300.7817078,1
880.0644531,838.9400024,-488.2820129,859.3763428,304.6879883,1
870.1945801,838.9400024,-488.2820129,859.3763428,304.6879883,1
842.2299194,827.4251099,-492.1882629,867.1888428,304.6879883,1
853.744812,825.7801514,-492.1882629,859.3763428,304.6879883,1
822.4901733,825.7801514,-500.0007935,863.2825928,304.6879883,1
781.3656616,801.1054077,-496.0945129,855.4700928,296.8754578,1
796.1704712,796.1704712,-484.3757629,851.5638428,308.5942383,1
758.3359375,756.690979,-484.3757629,851.5638428,308.5942383,1
736.9511719,764.9158325,-523.4382935,867.1888428,277.3441772,1
732.0162354,764.9158325,-503.9070435,843.7513428,296.8754578,1
748.4660645,766.5608521,-503.9070435,843.7513428,296.8754578,1
733.6612549,779.7207031,-515.6257935,855.4700928,281.2504272,1
741.8861084,781.3656616,-515.6257935,855.4700928,281.2504272,1
751.7560425,792.8805542,-515.6257935,855.4700928,281.2504272,1
738.5961914,791.2355347,-507.8132935,863.2825928,277.3441772,1
741.8861084,806.0403442,-507.8132935,863.2825928,277.3441772,1
753.401001,810.9752808,-507.8132935,863.2825928,277.3441772,1
759.980896,819.2001953,-500.0007935,855.4700928,281.2504272,1
759.980896,819.2001953,-503.9070435,859.3763428,281.2504272,1
759.980896,819.2001953,-511.7195435,863.2825928,281.2504272,1
769.8508301,822.4901733,-511.7195435,863.2825928,281.2504272,1
764.9158325,820.8452148,-511.7195435,863.2825928,281.2504272,1
786.3005981,825.7801514,-507.8132935,863.2825928,296.8754578,1
799.4604492,829.0700684,-511.7195435,851.5638428,285.1567078,1
789.5905762,830.7150879,-511.7195435,851.5638428,285.1567078,1
779.7207031,830.7150879,-500.0007935,863.2825928,289.0629578,1
802.7504272,832.3600464,-500.0007935,863.2825928,289.0629578,1
792.8805542,829.0700684,-503.9070435,855.4700928,281.2504272,1
778.0756836,829.0700684,-511.7195435,855.4700928,285.1567078,1
797.8154907,832.3600464,-511.7195435,855.4700928,285.1567078,1
794.5255127,832.3600464,-511.7195435,859.3763428,281.2504272,1
807.6853638,829.0700684,-511.7195435,859.3763428,281.2504272,1
792.8805542,827.4251099,-511.7195435,859.3763428,281.2504272,1
783.0106201,825.7801514,-511.7195435,851.5638428,285.1567078,1
809.3303223,834.0050049,-511.7195435,851.5638428,285.1567078,1
784.6556396,832.3600464,-511.7195435,855.4700928,289.0629578,1
806.0403442,842.2299194,-507.8132935,855.4700928,285.1567078,1
806.0403442,842.2299194,-503.9070435,851.5638428,285.1567078,1
802.7504272,842.2299194,-503.9070435,851.5638428,285.1567078,1
801.1054077,835.6500244,-503.9070435,851.5638428,285.1567078,1
768.2058105,832.3600464,-507.8132935,859.3763428,285.1567078,1
791.2355347,834.0050049,-507.8132935,859.3763428,285.1567078,1
801.1054077,838.9400024,-507.8132935,859.3763428,285.1567078,1
804.3953857,838.9400024,-507.8132935,855.4700928,289.0629578,1
787.9455566,838.9400024,-507.8132935,855.4700928,289.0629578,1
801.1054077,842.2299194,-500.0007935,855.4700928,285.1567078,1
789.5905762,832.3600464,-500.0007935,855.4700928,289.0629578,1
789.5905762,832.3600464,-511.7195435,859.3763428,285.1567078,1
806.0403442,835.6500244,-511.7195435,859.3763428,285.1567078,1
797.8154907,837.2949829,-511.7195435,859.3763428,285.1567078,1
810.9752808,837.2949829,-511.7195435,855.4700928,285.1567078,1
810.9752808,842.2299194,-511.7195435,855.4700928,285.1567078,1
787.9455566,840.5849609,-507.8132935,855.4700928,281.2504272,1
787.9455566,840.5849609,-507.8132935,859.3763428,281.2504272,1
806.0403442,840.5849609,-507.8132935,859.3763428,281.2504272,1
783.0106201,830.7150879,-511.7195435,859.3763428,277.3441772,1
774.7857666,830.7150879,-511.7195435,859.3763428,277.3441772,1
804.3953857,835.6500244,-511.7195435,859.3763428,277.3441772,1
810.9752808,834.0050049,-507.8132935,855.4700928,285.1567078,1
822.4901733,835.6500244,-507.8132935,855.4700928,285.1567078,1
806.0403442,837.2949829,-507.8132935,855.4700928,285.1567078,1
796.1704712,837.2949829,-507.8132935,855.4700928,285.1567078,1
814.2652588,842.2299194,-515.6257935,847.6575928,285.1567078,1
820.8452148,847.164856,-515.6257935,859.3763428,281.2504272,1
794.5255127,843.874939,-500.0007935,855.4700928,285.1567078,1
822.4901733,842.2299194,-500.0007935,855.4700928,285.1567078,1
825.7801514,840.5849609,-500.0007935,855.4700928,285.1567078,1
817.5552368,835.6500244,-515.6257935,855.4700928,281.2504272,1
820.8452148,835.6500244,-515.6257935,855.4700928,281.2504272,1
820.8452148,835.6500244,-507.8132935,855.4700928,289.0629578,1
806.0403442,850.454834,-507.8132935,855.4700928,289.0629578,1
771.4957886,848.8098755,-511.7195435,851.5638428,281.2504272,1
771.4957886,848.8098755,-503.9070435,851.5638428,285.1567078,1
791.2355347,848.8098755,-503.9070435,851.5638428,285.1567078,1
801.1054077,845.5198975,-503.9070435,851.5638428,285.1567078,1
810.9752808,847.164856,-503.9070435,851.5638428,285.1567078,1
789.5905762,842.2299194,-511.7195435,847.6575928,277.3441772,1
783.0106201,843.874939,-511.7195435,847.6575928,277.3441772,1
807.6853638,845.5198975,-511.7195435,847.6575928,277.3441772,1
825.7801514,843.874939,-511.7195435,859.3763428,285.1567078,1
801.1054077,842.2299194,-511.7195435,859.3763428,285.1567078,1
806.0403442,838.9400024,-511.7195435,847.6575928,289.0629578,1
883.3544312,906.3841553,-187.5002899,980.4702759,246.0941315,1
834.0050049,781.3656616,-179.6877747,1003.907837,285.1567078,1
906.3841553,807.6853638,-226.562851,988.2827759,316.4067383,1
906.3841553,834.0050049,-238.2816162,968.7515259,351.5630493,1
837.2949829,781.3656616,-238.2816162,968.7515259,351.5630493,1
896.5142822,834.0050049,-214.8440857,929.6889648,402.3443909,1
870.1945801,781.3656616,-269.5316772,906.2514038,437.5006714,1
922.8339844,858.6797485,-332.0317688,917.9702148,359.3755493,1
845.5198975,847.164856,-375.0005798,968.7515259,207.0315704,1
845.5198975,845.5198975,-378.9068298,933.5952148,210.9378357,1
840.5849609,843.874939,-386.7193604,937.5014648,210.9378357,1
853.744812,850.454834,-378.9068298,941.4077148,210.9378357,1
853.744812,850.454834,-375.0005798,945.3139648,222.656601,1
852.0997925,848.8098755,-390.6256104,929.6889648,214.8440857,1
852.0997925,840.5849609,-402.3443909,957.0327759,214.8440857,1
855.3897705,838.9400024,-402.3443909,957.0327759,214.8440857,1
838.9400024,843.874939,-402.3443909,957.0327759,214.8440857,1
848.8098755,847.164856,-394.5318604,906.2514038,214.8440857,1
848.8098755,847.164856,-394.5318604,937.5014648,199.2190552,1
843.874939,838.9400024,-378.9068298,957.0327759,191.4065552,1
853.744812,843.874939,-355.4692993,933.5952148,195.3128052,1
848.8098755,842.2299194,-351.5630493,945.3139648,183.5940399,1
850.454834,843.874939,-355.4692993,953.1264648,175.7815247,1
840.5849609,837.2949829,-355.4692993,945.3139648,175.7815247,1
845.5198975,838.9400024,-355.4692993,937.5014648,167.9690094,1
852.0997925,834.0050049,-355.4692993,937.5014648,167.9690094,1
848.8098755,843.874939,-355.4692993,949.2202148,160.1564941,1
847.164856,845.5198975,-355.4692993,949.2202148,160.1564941,1
845.5198975,835.6500244,-335.9380188,957.0327759,164.0627594,1
843.874939,837.2949829,-335.9380188,957.0327759,164.0627594,1
848.8098755,840.5849609,-335.9380188,957.0327759,164.0627594,1
852.0997925,848.8098755,-335.9380188,957.0327759,164.0627594,1
847.164856,848.8098755,-335.9380188,957.0327759,164.0627594,1
847.164856,840.5849609,-343.7505493,949.2202148,164.0627594,1
822.4901733,806.0403442,-347.6567993,953.1264648,167.9690094,1
822.4901733,806.0403442,-359.3755493,941.4077148,187.5002899,1
835.6500244,832.3600464,-359.3755493,941.4077148,187.5002899,1
807.6853638,825.7801514,-347.6567993,933.5952148,195.3128052,1
810.9752808,825.7801514,-347.6567993,933.5952148,195.3128052,1
850.454834,825.7801514,-328.1255188,980.4702759,242.1878815,1
870.1945801,878.4194946,-320.3129883,1007.814087,226.562851,1
870.1945801,878.4194946,-316.4067383,980.4702759,222.656601,1
870.1945801,878.4194946,-335.9380188,953.1264648,218.7503357,1
870.1945801,878.4194946,-347.6567993,953.1264648,207.0315704,1
820.8452148,799.4604492,-347.6567993,953.1264648,207.0315704,1
889.9343872,878.4194946,-347.6567993,953.1264648,207.0315704,1
814.2652588,773.1407471,-300.7817078,964.8452759,199.2190552,1
817.5552368,799.4604492,-308.5942383,937.5014648,222.656601,1
822.4901733,817.5552368,-304.6879883,941.4077148,238.2816162,1
883.3544312,876.7745361,-257.8128967,996.0953369,300.7817078,1
837.2949829,843.874939,-222.656601,1011.720337,343.7505493,1
799.4604492,855.3897705,-179.6877747,980.4702759,242.1878815,1
861.9697266,865.2596436,-347.6567993,1019.532837,246.0941315,1
861.9697266,865.2596436,-375.0005798,968.7515259,242.1878815,1
817.5552368,824.1351318,-335.9380188,941.4077148,296.8754578,1
827.4251099,812.6203003,-398.4381104,984.3765259,242.1878815,1
827.4251099,812.6203003,-425.7819214,984.3765259,203.1253204,1
865.2596436,852.0997925,-425.7819214,984.3765259,203.1253204,1
824.1351318,822.4901733,-425.7819214,984.3765259,203.1253204,1
799.4604492,822.4901733,-441.4069519,980.4702759,167.9690094,1
837.2949829,827.4251099,-281.2504272,972.6577759,187.5002899,1
842.2299194,817.5552368,-296.8754578,988.2827759,160.1564941,1
842.2299194,817.5552368,-273.4379272,968.7515259,183.5940399,1
840.5849609,843.874939,-277.3441772,945.3139648,78.12512207,1
814.2652588,807.6853638,-285.1567078,953.1264648,117.1876831,1
834.0050049,853.744812,-285.1567078,953.1264648,117.1876831,1
884.9994507,866.9046631,-355.4692993,988.2827759,117.1876831,1
827.4251099,814.2652588,-355.4692993,988.2827759,117.1876831,1
857.034729,827.4251099,-355.4692993,988.2827759,117.1876831,1
853.744812,779.7207031,-339.8442688,949.2202148,97.65640259,1
848.8098755,845.5198975,-363.2818298,960.9390259,46.87507248,1
835.6500244,848.8098755,-363.2818298,960.9390259,46.87507248,1
837.2949829,857.034729,-355.4692993,980.4702759,23.43753624,1
815.9102783,801.1054077,-335.9380188,964.8452759,11.71876812,1
830.7150879,786.3005981,-429.6881714,894.5326538,0.0,1
865.2596436,819.2001953,-429.6881714,894.5326538,0.0,1
848.8098755,837.2949829,-429.6881714,894.5326538,0.0,1
865.2596436,852.0997925,-425.7819214,953.1264648,-7.812512398,1
829.0700684,817.5552368,-417.9693909,929.6889648,-3.906256199,1
866.9046631,843.874939,-414.0631409,917.9702148,-3.906256199,1
866.9046631,843.874939,-417.9693909,925.7827148,0.0,1
852.0997925,837.2949829,-410.1568909,953.1264648,0.0,1
853.744812,852.0997925,-406.2506409,933.5952148,0.0,1
807.6853638,870.1945801,-371.0943298,917.9702148,15.6250248,1
830.7150879,917.8990479,-414.0631409,929.6889648,19.53128052,1
804.3953857,817.5552368,-414.0631409,953.1264648,128.9064484,1
850.454834,863.6146851,-414.0631409,953.1264648,128.9064484,1
860.324707,863.6146851,-437.5006714,953.1264648,148.4377289,1
830.7150879,824.1351318,-394.5318604,937.5014648,156.2502441,1
832.3600464,832.3600464,-398.4381104,957.0327759,164.0627594,1
889.9343872,878.4194946,-433.5944214,910.1576538,160.1564941,1
866.9046631,868.5496216,-398.4381104,953.1264648,152.3439941,1
850.454834,861.9697266,-398.4381104,953.1264648,152.3439941,1
855.3897705,861.9697266,-410.1568909,949.2202148,152.3439941,1
855.3897705,861.9697266,-386.7193604,957.0327759,144.5314789,1
871.8395996,861.9697266,-414.0631409,933.5952148,152.3439941,1
884.9994507,894.8693237,-414.0631409,933.5952148,152.3439941,1
852.0997925,868.5496216,-414.0631409,933.5952148,152.3439941,1
884.9994507,875.1295166,-414.0631409,949.2202148,148.4377289,1
819.2001953,799.4604492,-414.0631409,949.2202148,148.4377289,1
884.9994507,861.9697266,-378.9068298,945.3139648,156.2502441,1
884.9994507,861.9697266,-386.7193604,964.8452759,156.2502441,1
858.6797485,881.7094727,-402.3443909,921.8764648,171.8752747,1
809.3303223,792.8805542,-406.2506409,925.7827148,187.5002899,1
855.3897705,852.0997925,-406.2506409,925.7827148,187.5002899,1
848.8098755,852.0997925,-398.4381104,929.6889648,183.5940399,1
921.1889648,904.7391968,-417.9693909,937.5014648,179.6877747,1
894.8693237,878.4194946,-417.9693909,937.5014648,179.6877747,1
894.8693237,878.4194946,-417.9693909,957.0327759,164.0627594,1
894.8693237,878.4194946,-433.5944214,925.7827148,167.9690094,1
894.8693237,904.7391968,-433.5944214,925.7827148,167.9690094,1
875.1295166,884.9994507,-421.8756714,937.5014648,167.9690094,1
888.2893677,888.2893677,-429.6881714,960.9390259,160.1564941,1
875.1295166,861.9697266,-429.6881714,960.9390259,160.1564941,1
835.6500244,835.6500244,-429.6881714,960.9390259,160.1564941,1
848.8098755,835.6500244,-414.0631409,933.5952148,144.5314789,1
888.2893677,888.2893677,-414.0631409,933.5952148,144.5314789,1
875.1295166,875.1295166,-414.0631409,933.5952148,144.5314789,1
809.3303223,809.3303223,-437.5006714,921.8764648,140.6252136,1
886.6444092,888.2893677,-437.5006714,921.8764648,140.6252136,1
891.5793457,888.2893677,-386.7193604,941.4077148,167.9690094,1
891.5793457,888.2893677,-441.4069519,949.2202148,144.5314789,1
884.9994507,875.1295166,-441.4069519,949.2202148,144.5314789,1
806.0403442,809.3303223,-441.4069519,949.2202148,144.5314789,1
888.2893677,871.8395996,-429.6881714,933.5952148,144.5314789,1
868.5496216,819.2001953,-429.6881714,929.6889648,136.7189636,1
858.6797485,829.0700684,-375.0005798,929.6889648,132.8127136,1
865.2596436,871.8395996,-375.0005798,929.6889648,132.8127136,1
858.6797485,845.5198975,-425.7819214,957.0327759,117.1876831,1
871.8395996,819.2001953,-406.2506409,945.3139648,113.2814255,1
812.6203003,819.2001953,-367.1880798,957.0327759,113.2814255,1
838.9400024,809.3303223,-367.1880798,957.0327759,113.2814255,1
891.5793457,891.5793457,-367.1880798,968.7515259,109.3751678,1
891.5793457,891.5793457,-367.1880798,937.5014648,113.2814255,1
891.5793457,891.5793457,-363.2818298,964.8452759,105.4689178,1
835.6500244,806.0403442,-359.3755493,953.1264648,85.93763733,1
884.9994507,878.4194946,-359.3755493,953.1264648,85.93763733,1
784.6556396,792.8805542,-378.9068298,953.1264648,66.40635681,1
863.6146851,878.4194946,-394.5318604,957.0327759,50.78133011,1
863.6146851,878.4194946,-390.6256104,964.8452759,35.15630341,1
863.6146851,878.4194946,-371.0943298,953.1264648,7.812512398,1
758.3359375,773.1407471,-359.3755493,949.2202148,15.6250248,1
810.9752808,825.7801514,-363.2818298,960.9390259,11.71876812,1
863.6146851,825.7801514,-371.0943298,957.0327759,-7.812512398,1
863.6146851,878.4194946,-367.1880798,957.0327759,-7.812512398,1
758.3359375,773.1407471,-375.0005798,949.2202148,-11.71876812,1
863.6146851,878.4194946,-375.0005798,949.2202148,-11.71876812,1
881.7094727,878.4194946,-339.8442688,925.7827148,300.7817078,1
817.5552368,807.6853638,-335.9380188,921.8764648,304.6879883,1
883.3544312,871.8395996,-335.9380188,925.7827148,304.6879883,1
886.6444092,871.8395996,-347.6567993,933.5952148,300.7817078,1
886.6444092,871.8395996,-335.9380188,921.8764648,308.5942383,1
820.8452148,810.9752808,-335.9380188,925.7827148,304.6879883,1
860.324707,875.1295166,-339.8442688,925.7827148,304.6879883,1
834.0050049,838.9400024,-339.8442688,925.7827148,304.6879883,1
801.1054077,812.6203003,-335.9380188,925.7827148,308.5942383,1
807.6853638,799.4604492,-335.9380188,925.7827148,308.5942383,1
860.324707,845.5198975,-343.7505493,925.7827148,304.6879883,1
860.324707,845.5198975,-339.8442688,929.6889648,308.5942383,1
893.2243042,878.4194946,-339.8442688,929.6889648,308.5942383,1
893.2243042,875.1295166,-339.8442688,929.6889648,308.5942383,1
