EEG1,EEG2,Acc_X,Acc_Y,Acc_Z,User_Number
842.2299194,847.164856,-656.2510376,789.0637207,136.7189636,1
845.5198975,853.744812,-660.1572876,792.9699707,136.7189636,1
847.164856,858.6797485,-656.2510376,792.9699707,136.7189636,1
843.874939,852.0997925,-656.2510376,792.9699707,140.6252136,1
847.164856,857.034729,-656.2510376,792.9699707,136.7189636,1
845.5198975,852.0997925,-656.2510376,789.0637207,136.7189636,1
847.164856,853.744812,-656.2510376,789.0637207,136.7189636,1
845.5198975,853.744812,-660.1572876,785.1574707,132.8127136,1
842.2299194,848.8098755,-652.3447876,785.1574707,140.6252136,1
848.8098755,847.164856,-656.2510376,792.9699707,140.6252136,1
848.8098755,847.164856,-656.2510376,796.8762207,136.7189636,1
843.874939,842.2299194,-660.1572876,792.9699707,136.7189636,1
845.5198975,852.0997925,-660.1572876,792.9699707,136.7189636,1
848.8098755,843.874939,-656.2510376,792.9699707,136.7189636,1
855.3897705,835.6500244,-656.2510376,796.8762207,136.7189636,1
855.3897705,835.6500244,-660.1572876,792.9699707,136.7189636,1
857.034729,829.0700684,-660.1572876,792.9699707,136.7189636,1
857.034729,834.0050049,-656.2510376,792.9699707,140.6252136,1
852.0997925,837.2949829,-656.2510376,792.9699707,140.6252136,1
843.874939,847.164856,-656.2510376,792.9699707,136.7189636,1
840.5849609,845.5198975,-656.2510376,792.9699707,136.7189636,1
842.2299194,843.874939,-656.2510376,792.9699707,132.8127136,1
842.2299194,843.874939,-656.2510376,789.0637207,136.7189636,1
842.2299194,843.874939,-660.1572876,796.8762207,136.7189636,1
835.6500244,843.874939,-660.1572876,796.8762207,136.7189636,1
832.3600464,843.874939,-660.1572876,796.8762207,136.7189636,1
835.6500244,848.8098755,-656.2510376,796.8762207,140.6252136,1
835.6500244,847.164856,-660.1572876,792.9699707,136.7189636,1
840.5849609,835.6500244,-656.2510376,792.9699707,132.8127136,1
838.9400024,845.5198975,-656.2510376,792.9699707,136.7189636,1
842.2299194,835.6500244,-656.2510376,792.9699707,136.7189636,1
842.2299194,847.164856,-656.2510376,792.9699707,136.7189636,1
838.9400024,843.874939,-656.2510376,792.9699707,136.7189636,1
842.2299194,845.5198975,-656.2510376,792.9699707,136.7189636,1
843.874939,840.5849609,-656.2510376,792.9699707,136.7189636,1
855.3897705,837.2949829,-656.2510376,792.9699707,136.7189636,1
842.2299194,860.324707,-656.2510376,792.9699707,136.7189636,1
842.2299194,863.6146851,-656.2510376,792.9699707,136.7189636,1
840.5849609,857.034729,-656.2510376,796.8762207,136.7189636,1
840.5849609,857.034729,-660.1572876,796.8762207,132.8127136,1
843.874939,848.8098755,-660.1572876,796.8762207,132.8127136,1
847.164856,852.0997925,-648.4385376,789.0637207,140.6252136,1
842.2299194,858.6797485,-660.1572876,796.8762207,136.7189636,1
847.164856,848.8098755,-660.1572876,796.8762207,136.7189636,1
842.2299194,853.744812,-656.2510376,792.9699707,140.6252136,1
840.5849609,847.164856,-656.2510376,792.9699707,140.6252136,1
847.164856,840.5849609,-656.2510376,796.8762207,136.7189636,1
842.2299194,842.2299194,-656.2510376,792.9699707,140.6252136,1
840.5849609,843.874939,-656.2510376,792.9699707,136.7189636,1
845.5198975,852.0997925,-652.3447876,792.9699707,136.7189636,1
843.874939,853.744812,-656.2510376,792.9699707,136.7189636,1
845.5198975,843.874939,-656.2510376,796.8762207,136.7189636,1
845.5198975,853.744812,-652.3447876,792.9699707,140.6252136,1
843.874939,850.454834,-652.3447876,792.9699707,140.6252136,1
842.2299194,842.2299194,-656.2510376,792.9699707,132.8127136,1
850.454834,845.5198975,-656.2510376,792.9699707,136.7189636,1
848.8098755,850.454834,-656.2510376,792.9699707,140.6252136,1
848.8098755,842.2299194,-656.2510376,792.9699707,140.6252136,1
865.2596436,827.4251099,-656.2510376,792.9699707,136.7189636,1
866.9046631,825.7801514,-656.2510376,796.8762207,136.7189636,1
860.324707,834.0050049,-656.2510376,796.8762207,136.7189636,1
850.454834,843.874939,-656.2510376,796.8762207,136.7189636,1
850.454834,837.2949829,-656.2510376,796.8762207,136.7189636,1
850.454834,848.8098755,-656.2510376,792.9699707,136.7189636,1
848.8098755,845.5198975,-652.3447876,792.9699707,136.7189636,1
848.8098755,837.2949829,-660.1572876,796.8762207,132.8127136,1
850.454834,848.8098755,-648.4385376,792.9699707,140.6252136,1
848.8098755,843.874939,-648.4385376,792.9699707,140.6252136,1
848.8098755,838.9400024,-656.2510376,796.8762207,136.7189636,1
840.5849609,845.5198975,-656.2510376,792.9699707,132.8127136,1
850.454834,852.0997925,-656.2510376,792.9699707,132.8127136,1
848.8098755,857.034729,-656.2510376,796.8762207,140.6252136,1
848.8098755,857.034729,-660.1572876,796.8762207,136.7189636,1
848.8098755,857.034729,-656.2510376,792.9699707,140.6252136,1
853.744812,848.8098755,-656.2510376,792.9699707,140.6252136,1
848.8098755,848.8098755,-656.2510376,792.9699707,136.7189636,1
834.0050049,848.8098755,-656.2510376,796.8762207,136.7189636,1
834.0050049,845.5198975,-652.3447876,792.9699707,136.7189636,1
847.164856,845.5198975,-656.2510376,800.7825317,136.7189636,1
847.164856,847.164856,-656.2510376,800.7825317,136.7189636,1
842.2299194,843.874939,-652.3447876,785.1574707,136.7189636,1
837.2949829,842.2299194,-656.2510376,796.8762207,136.7189636,1
845.5198975,842.2299194,-656.2510376,796.8762207,136.7189636,1
838.9400024,848.8098755,-656.2510376,792.9699707,136.7189636,1
838.9400024,848.8098755,-656.2510376,792.9699707,140.6252136,1
845.5198975,843.874939,-656.2510376,792.9699707,140.6252136,1
842.2299194,848.8098755,-656.2510376,796.8762207,140.6252136,1
845.5198975,855.3897705,-656.2510376,792.9699707,136.7189636,1
838.9400024,850.454834,-656.2510376,796.8762207,136.7189636,1
838.9400024,850.454834,-656.2510376,792.9699707,136.7189636,1
840.5849609,853.744812,-656.2510376,796.8762207,136.7189636,1
855.3897705,842.2299194,-652.3447876,796.8762207,140.6252136,1
848.8098755,857.034729,-656.2510376,792.9699707,136.7189636,1
842.2299194,855.3897705,-656.2510376,796.8762207,136.7189636,1
842.2299194,855.3897705,-656.2510376,792.9699707,136.7189636,1
843.874939,847.164856,-656.2510376,796.8762207,136.7189636,1
848.8098755,843.874939,-652.3447876,796.8762207,136.7189636,1
850.454834,840.5849609,-656.2510376,796.8762207,136.7189636,1
850.454834,855.3897705,-656.2510376,792.9699707,136.7189636,1
853.744812,840.5849609,-656.2510376,792.9699707,136.7189636,1
853.744812,840.5849609,-656.2510376,796.8762207,136.7189636,1
855.3897705,843.874939,-656.2510376,796.8762207,136.7189636,1
847.164856,857.034729,-656.2510376,796.8762207,136.7189636,1
847.164856,857.034729,-656.2510376,792.9699707,132.8127136,1
850.454834,843.874939,-656.2510376,792.9699707,132.8127136,1
842.2299194,848.8098755,-652.3447876,796.8762207,140.6252136,1
842.2299194,848.8098755,-656.2510376,796.8762207,136.7189636,1
847.164856,848.8098755,-660.1572876,792.9699707,136.7189636,1
843.874939,843.874939,-660.1572876,792.9699707,136.7189636,1
848.8098755,843.874939,-656.2510376,792.9699707,140.6252136,1
845.5198975,843.874939,-652.3447876,792.9699707,136.7189636,1
848.8098755,840.5849609,-656.2510376,796.8762207,136.7189636,1
855.3897705,840.5849609,-652.3447876,796.8762207,140.6252136,1
853.744812,847.164856,-656.2510376,800.7825317,136.7189636,1
850.454834,843.874939,-652.3447876,792.9699707,136.7189636,1
850.454834,843.874939,-652.3447876,792.9699707,140.6252136,1
847.164856,838.9400024,-652.3447876,792.9699707,140.6252136,1
852.0997925,842.2299194,-652.3447876,792.9699707,140.6252136,1
860.324707,837.2949829,-660.1572876,796.8762207,132.8127136,1
852.0997925,827.4251099,-652.3447876,796.8762207,140.6252136,1
852.0997925,827.4251099,-656.2510376,800.7825317,136.7189636,1
852.0997925,848.8098755,-656.2510376,800.7825317,136.7189636,1
852.0997925,848.8098755,-652.3447876,792.9699707,140.6252136,1
852.0997925,847.164856,-652.3447876,792.9699707,140.6252136,1
847.164856,848.8098755,-656.2510376,792.9699707,136.7189636,1
848.8098755,840.5849609,-652.3447876,792.9699707,136.7189636,1
848.8098755,850.454834,-656.2510376,796.8762207,140.6252136,1
852.0997925,847.164856,-652.3447876,792.9699707,136.7189636,1
850.454834,848.8098755,-652.3447876,792.9699707,136.7189636,1
850.454834,845.5198975,-652.3447876,792.9699707,136.7189636,1
852.0997925,853.744812,-656.2510376,796.8762207,136.7189636,1
855.3897705,847.164856,-656.2510376,792.9699707,136.7189636,1
855.3897705,842.2299194,-656.2510376,796.8762207,140.6252136,1
845.5198975,848.8098755,-652.3447876,792.9699707,136.7189636,1
840.5849609,855.3897705,-652.3447876,792.9699707,136.7189636,1
837.2949829,852.0997925,-652.3447876,796.8762207,136.7189636,1
837.2949829,852.0997925,-652.3447876,796.8762207,140.6252136,1
852.0997925,842.2299194,-656.2510376,796.8762207,136.7189636,1
843.874939,845.5198975,-652.3447876,792.9699707,136.7189636,1
848.8098755,858.6797485,-652.3447876,796.8762207,140.6252136,1
842.2299194,853.744812,-656.2510376,792.9699707,136.7189636,1
857.034729,835.6500244,-648.4385376,792.9699707,140.6252136,1
842.2299194,855.3897705,-648.4385376,792.9699707,140.6252136,1
847.164856,852.0997925,-656.2510376,792.9699707,140.6252136,1
838.9400024,847.164856,-656.2510376,792.9699707,140.6252136,1
838.9400024,845.5198975,-652.3447876,796.8762207,140.6252136,1
848.8098755,848.8098755,-652.3447876,792.9699707,140.6252136,1
848.8098755,853.744812,-652.3447876,792.9699707,140.6252136,1
848.8098755,845.5198975,-652.3447876,796.8762207,136.7189636,1
853.744812,848.8098755,-656.2510376,796.8762207,136.7189636,1
847.164856,858.6797485,-652.3447876,796.8762207,136.7189636,1
847.164856,853.744812,-652.3447876,796.8762207,136.7189636,1
842.2299194,847.164856,-656.2510376,796.8762207,136.7189636,1
842.2299194,847.164856,-648.4385376,789.0637207,140.6252136,1
847.164856,847.164856,-648.4385376,789.0637207,140.6252136,1
843.874939,843.874939,-656.2510376,796.8762207,140.6252136,1
847.164856,848.8098755,-648.4385376,796.8762207,136.7189636,1
852.0997925,852.0997925,-648.4385376,796.8762207,136.7189636,1
848.8098755,852.0997925,-656.2510376,796.8762207,140.6252136,1
850.454834,850.454834,-652.3447876,796.8762207,136.7189636,1
845.5198975,858.6797485,-652.3447876,792.9699707,140.6252136,1
848.8098755,855.3897705,-652.3447876,792.9699707,140.6252136,1
847.164856,850.454834,-656.2510376,796.8762207,136.7189636,1
852.0997925,848.8098755,-652.3447876,796.8762207,140.6252136,1
837.2949829,855.3897705,-652.3447876,796.8762207,136.7189636,1
837.2949829,855.3897705,-652.3447876,796.8762207,140.6252136,1
852.0997925,852.0997925,-656.2510376,796.8762207,136.7189636,1
850.454834,837.2949829,-652.3447876,796.8762207,140.6252136,1
842.2299194,845.5198975,-652.3447876,796.8762207,140.6252136,1
843.874939,848.8098755,-656.2510376,796.8762207,136.7189636,1
843.874939,848.8098755,-648.4385376,789.0637207,136.7189636,1
848.8098755,857.034729,-648.4385376,789.0637207,136.7189636,1
847.164856,855.3897705,-652.3447876,800.7825317,140.6252136,1
847.164856,855.3897705,-656.2510376,796.8762207,136.7189636,1
843.874939,853.744812,-656.2510376,796.8762207,136.7189636,1
850.454834,838.9400024,-648.4385376,792.9699707,140.6252136,1
842.2299194,852.0997925,-648.4385376,792.9699707,140.6252136,1
845.5198975,853.744812,-652.3447876,796.8762207,140.6252136,1
842.2299194,843.874939,-656.2510376,800.7825317,136.7189636,1
843.874939,842.2299194,-656.2510376,800.7825317,136.7189636,1
855.3897705,850.454834,-648.4385376,796.8762207,140.6252136,1
850.454834,847.164856,-652.3447876,796.8762207,136.7189636,1
845.5198975,853.744812,-648.4385376,796.8762207,140.6252136,1
848.8098755,852.0997925,-648.4385376,796.8762207,140.6252136,1
847.164856,842.2299194,-652.3447876,796.8762207,140.6252136,1
842.2299194,857.034729,-652.3447876,796.8762207,140.6252136,1
845.5198975,845.5198975,-652.3447876,796.8762207,140.6252136,1
845.5198975,852.0997925,-652.3447876,792.9699707,140.6252136,1
848.8098755,843.874939,-652.3447876,792.9699707,132.8127136,1
847.164856,850.454834,-652.3447876,792.9699707,132.8127136,1
843.874939,850.454834,-652.3447876,792.9699707,132.8127136,1
847.164856,848.8098755,-648.4385376,796.8762207,140.6252136,1
848.8098755,845.5198975,-652.3447876,800.7825317,136.7189636,1
843.874939,857.034729,-648.4385376,796.8762207,140.6252136,1
837.2949829,850.454834,-652.3447876,796.8762207,140.6252136,1
855.3897705,848.8098755,-652.3447876,796.8762207,140.6252136,1
855.3897705,847.164856,-648.4385376,796.8762207,140.6252136,1
845.5198975,850.454834,-652.3447876,796.8762207,140.6252136,1
845.5198975,837.2949829,-648.4385376,796.8762207,140.6252136,1
843.874939,843.874939,-656.2510376,800.7825317,140.6252136,1
847.164856,853.744812,-652.3447876,800.7825317,136.7189636,1
845.5198975,847.164856,-648.4385376,789.0637207,136.7189636,1
845.5198975,845.5198975,-648.4385376,789.0637207,136.7189636,1
850.454834,847.164856,-656.2510376,796.8762207,136.7189636,1
845.5198975,845.5198975,-656.2510376,796.8762207,136.7189636,1
847.164856,852.0997925,-648.4385376,796.8762207,140.6252136,1
845.5198975,838.9400024,-648.4385376,796.8762207,140.6252136,1
842.2299194,845.5198975,-648.4385376,796.8762207,136.7189636,1
840.5849609,840.5849609,-652.3447876,800.7825317,136.7189636,1
840.5849609,840.5849609,-648.4385376,796.8762207,140.6252136,1
840.5849609,840.5849609,-652.3447876,800.7825317,140.6252136,1
843.874939,840.5849609,-652.3447876,800.7825317,140.6252136,1
843.874939,850.454834,-648.4385376,792.9699707,140.6252136,1
840.5849609,845.5198975,-648.4385376,792.9699707,140.6252136,1
840.5849609,845.5198975,-648.4385376,796.8762207,136.7189636,1
848.8098755,855.3897705,-652.3447876,796.8762207,140.6252136,1
848.8098755,850.454834,-648.4385376,796.8762207,140.6252136,1
848.8098755,850.454834,-652.3447876,800.7825317,136.7189636,1
845.5198975,858.6797485,-652.3447876,800.7825317,136.7189636,1
843.874939,853.744812,-648.4385376,796.8762207,144.5314789,1
840.5849609,853.744812,-644.5322876,789.0637207,140.6252136,1
843.874939,852.0997925,-648.4385376,804.6887817,140.6252136,1
843.874939,848.8098755,-652.3447876,796.8762207,140.6252136,1
842.2299194,845.5198975,-648.4385376,796.8762207,140.6252136,1
842.2299194,845.5198975,-652.3447876,800.7825317,140.6252136,1
843.874939,853.744812,-652.3447876,800.7825317,140.6252136,1
845.5198975,837.2949829,-648.4385376,800.7825317,140.6252136,1
835.6500244,840.5849609,-652.3447876,796.8762207,136.7189636,1
850.454834,850.454834,-648.4385376,796.8762207,140.6252136,1
840.5849609,848.8098755,-648.4385376,796.8762207,140.6252136,1
840.5849609,847.164856,-648.4385376,800.7825317,140.6252136,1
845.5198975,852.0997925,-648.4385376,800.7825317,140.6252136,1
842.2299194,842.2299194,-652.3447876,796.8762207,140.6252136,1
842.2299194,842.2299194,-648.4385376,796.8762207,140.6252136,1
843.874939,855.3897705,-648.4385376,796.8762207,140.6252136,1
848.8098755,853.744812,-648.4385376,792.9699707,140.6252136,1
840.5849609,842.2299194,-652.3447876,800.7825317,140.6252136,1
842.2299194,848.8098755,-648.4385376,800.7825317,136.7189636,1
850.454834,847.164856,-648.4385376,796.8762207,140.6252136,1
850.454834,847.164856,-648.4385376,800.7825317,140.6252136,1
850.454834,848.8098755,-648.4385376,796.8762207,140.6252136,1
838.9400024,848.8098755,-648.4385376,800.7825317,140.6252136,1
848.8098755,847.164856,-648.4385376,796.8762207,140.6252136,1
848.8098755,847.164856,-648.4385376,800.7825317,140.6252136,1
845.5198975,850.454834,-644.5322876,792.9699707,140.6252136,1
847.164856,847.164856,-644.5322876,792.9699707,140.6252136,1
857.034729,847.164856,-652.3447876,800.7825317,140.6252136,1
847.164856,848.8098755,-652.3447876,800.7825317,140.6252136,1
845.5198975,843.874939,-644.5322876,800.7825317,140.6252136,1
847.164856,843.874939,-644.5322876,800.7825317,140.6252136,1
852.0997925,842.2299194,-644.5322876,800.7825317,140.6252136,1
842.2299194,847.164856,-648.4385376,800.7825317,140.6252136,1
847.164856,853.744812,-644.5322876,796.8762207,140.6252136,1
852.0997925,847.164856,-648.4385376,800.7825317,140.6252136,1
847.164856,847.164856,-640.6259766,796.8762207,144.5314789,1
843.874939,855.3897705,-652.3447876,800.7825317,140.6252136,1
843.874939,855.3897705,-652.3447876,796.8762207,140.6252136,1
843.874939,850.454834,-652.3447876,796.8762207,140.6252136,1
853.744812,843.874939,-648.4385376,800.7825317,140.6252136,1
847.164856,852.0997925,-648.4385376,800.7825317,140.6252136,1
853.744812,842.2299194,-648.4385376,796.8762207,140.6252136,1
847.164856,842.2299194,-648.4385376,796.8762207,140.6252136,1
845.5198975,842.2299194,-648.4385376,796.8762207,140.6252136,1
838.9400024,843.874939,-648.4385376,800.7825317,140.6252136,1
840.5849609,840.5849609,-648.4385376,800.7825317,140.6252136,1
843.874939,845.5198975,-648.4385376,800.7825317,140.6252136,1
847.164856,847.164856,-644.5322876,800.7825317,144.5314789,1
848.8098755,845.5198975,-648.4385376,796.8762207,140.6252136,1
853.744812,848.8098755,-648.4385376,796.8762207,140.6252136,1
847.164856,848.8098755,-644.5322876,796.8762207,140.6252136,1
847.164856,848.8098755,-648.4385376,804.6887817,140.6252136,1
847.164856,848.8098755,-652.3447876,804.6887817,136.7189636,1
852.0997925,850.454834,-652.3447876,804.6887817,136.7189636,1
850.454834,843.874939,-644.5322876,800.7825317,140.6252136,1
852.0997925,848.8098755,-644.5322876,800.7825317,140.6252136,1
853.744812,845.5198975,-648.4385376,800.7825317,140.6252136,1
845.5198975,843.874939,-644.5322876,796.8762207,140.6252136,1
843.874939,848.8098755,-648.4385376,804.6887817,136.7189636,1
843.874939,848.8098755,-648.4385376,800.7825317,140.6252136,1
845.5198975,855.3897705,-648.4385376,800.7825317,140.6252136,1
858.6797485,840.5849609,-648.4385376,800.7825317,140.6252136,1
857.034729,837.2949829,-648.4385376,800.7825317,140.6252136,1
850.454834,840.5849609,-648.4385376,800.7825317,140.6252136,1
850.454834,840.5849609,-648.4385376,796.8762207,140.6252136,1
853.744812,847.164856,-648.4385376,796.8762207,140.6252136,1
848.8098755,840.5849609,-648.4385376,800.7825317,144.5314789,1
847.164856,847.164856,-648.4385376,800.7825317,144.5314789,1
850.454834,847.164856,-652.3447876,800.7825317,136.7189636,1
837.2949829,850.454834,-640.6259766,800.7825317,144.5314789,1
837.2949829,850.454834,-648.4385376,804.6887817,140.6252136,1
837.2949829,850.454834,-652.3447876,800.7825317,140.6252136,1
845.5198975,840.5849609,-644.5322876,800.7825317,140.6252136,1
848.8098755,845.5198975,-644.5322876,800.7825317,140.6252136,1
852.0997925,835.6500244,-648.4385376,800.7825317,140.6252136,1
852.0997925,835.6500244,-648.4385376,800.7825317,136.7189636,1
850.454834,847.164856,-648.4385376,800.7825317,136.7189636,1
852.0997925,845.5198975,-648.4385376,800.7825317,136.7189636,1
848.8098755,845.5198975,-648.4385376,800.7825317,140.6252136,1
842.2299194,850.454834,-648.4385376,800.7825317,140.6252136,1
848.8098755,847.164856,-648.4385376,800.7825317,144.5314789,1
848.8098755,848.8098755,-648.4385376,800.7825317,144.5314789,1
845.5198975,843.874939,-652.3447876,804.6887817,136.7189636,1
845.5198975,843.874939,-640.6259766,800.7825317,144.5314789,1
845.5198975,842.2299194,-640.6259766,800.7825317,144.5314789,1
848.8098755,847.164856,-652.3447876,796.8762207,140.6252136,1
855.3897705,845.5198975,-644.5322876,800.7825317,140.6252136,1
848.8098755,843.874939,-648.4385376,796.8762207,140.6252136,1
842.2299194,840.5849609,-648.4385376,800.7825317,140.6252136,1
848.8098755,855.3897705,-648.4385376,800.7825317,140.6252136,1
848.8098755,848.8098755,-648.4385376,800.7825317,140.6252136,1
855.3897705,834.0050049,-644.5322876,800.7825317,140.6252136,1
848.8098755,838.9400024,-644.5322876,800.7825317,140.6252136,1
843.874939,842.2299194,-648.4385376,796.8762207,140.6252136,1
840.5849609,842.2299194,-648.4385376,804.6887817,140.6252136,1
852.0997925,847.164856,-644.5322876,796.8762207,144.5314789,1
848.8098755,853.744812,-644.5322876,804.6887817,144.5314789,1
845.5198975,843.874939,-652.3447876,800.7825317,140.6252136,1
858.6797485,852.0997925,-644.5322876,800.7825317,144.5314789,1
858.6797485,852.0997925,-648.4385376,804.6887817,140.6252136,1
853.744812,843.874939,-648.4385376,800.7825317,144.5314789,1
842.2299194,842.2299194,-648.4385376,800.7825317,140.6252136,1
853.744812,850.454834,-648.4385376,800.7825317,140.6252136,1
845.5198975,852.0997925,-644.5322876,800.7825317,140.6252136,1
848.8098755,847.164856,-644.5322876,800.7825317,140.6252136,1
853.744812,852.0997925,-648.4385376,800.7825317,140.6252136,1
848.8098755,852.0997925,-648.4385376,800.7825317,144.5314789,1
850.454834,845.5198975,-648.4385376,800.7825317,144.5314789,1
850.454834,847.164856,-652.3447876,804.6887817,136.7189636,1
845.5198975,855.3897705,-652.3447876,804.6887817,136.7189636,1
850.454834,847.164856,-640.6259766,796.8762207,144.5314789,1
848.8098755,853.744812,-648.4385376,800.7825317,144.5314789,1
843.874939,852.0997925,-648.4385376,796.8762207,144.5314789,1
845.5198975,852.0997925,-648.4385376,796.8762207,144.5314789,1
845.5198975,847.164856,-644.5322876,800.7825317,144.5314789,1
847.164856,845.5198975,-644.5322876,800.7825317,148.4377289,1
843.874939,842.2299194,-648.4385376,804.6887817,144.5314789,1
843.874939,842.2299194,-648.4385376,800.7825317,144.5314789,1
842.2299194,850.454834,-648.4385376,800.7825317,144.5314789,1
847.164856,852.0997925,-648.4385376,796.8762207,148.4377289,1
845.5198975,850.454834,-648.4385376,792.9699707,148.4377289,1
845.5198975,850.454834,-648.4385376,785.1574707,152.3439941,1
845.5198975,850.454834,-652.3447876,792.9699707,148.4377289,1
848.8098755,850.454834,-652.3447876,792.9699707,148.4377289,1
852.0997925,843.874939,-660.1572876,808.5950317,148.4377289,1
852.0997925,843.874939,-656.2510376,812.5012817,148.4377289,1
848.8098755,853.744812,-656.2510376,812.5012817,148.4377289,1
848.8098755,852.0997925,-644.5322876,781.2512207,152.3439941,1
842.2299194,842.2299194,-667.9697876,800.7825317,132.8127136,1
847.164856,852.0997925,-636.7197266,789.0637207,140.6252136,1
845.5198975,848.8098755,-632.8134766,781.2512207,144.5314789,1
842.2299194,848.8098755,-664.0635376,808.5950317,128.9064484,1
842.2299194,843.874939,-656.2510376,781.2512207,140.6252136,1
842.2299194,843.874939,-652.3447876,781.2512207,144.5314789,1
843.874939,845.5198975,-652.3447876,781.2512207,144.5314789,1
843.874939,847.164856,-660.1572876,800.7825317,140.6252136,1
848.8098755,842.2299194,-679.6885376,742.1886597,148.4377289,1
847.164856,843.874939,-679.6885376,742.1886597,148.4377289,1
848.8098755,838.9400024,-667.9697876,804.6887817,164.0627594,1
847.164856,832.3600464,-671.8760376,796.8762207,144.5314789,1
847.164856,832.3600464,-656.2510376,781.2512207,132.8127136,1
845.5198975,832.3600464,-656.2510376,781.2512207,132.8127136,1
843.874939,842.2299194,-656.2510376,781.2512207,132.8127136,1
842.2299194,848.8098755,-660.1572876,781.2512207,128.9064484,1
845.5198975,848.8098755,-644.5322876,781.2512207,152.3439941,1
845.5198975,850.454834,-675.7822876,796.8762207,148.4377289,1
842.2299194,847.164856,-671.8760376,796.8762207,148.4377289,1
843.874939,852.0997925,-660.1572876,804.6887817,148.4377289,1
843.874939,850.454834,-652.3447876,792.9699707,148.4377289,1
845.5198975,845.5198975,-652.3447876,792.9699707,148.4377289,1
847.164856,845.5198975,-652.3447876,792.9699707,148.4377289,1
847.164856,845.5198975,-652.3447876,796.8762207,148.4377289,1
847.164856,845.5198975,-652.3447876,800.7825317,148.4377289,1
845.5198975,842.2299194,-652.3447876,800.7825317,144.5314789,1
847.164856,845.5198975,-648.4385376,796.8762207,144.5314789,1
845.5198975,848.8098755,-648.4385376,800.7825317,140.6252136,1
845.5198975,848.8098755,-636.7197266,800.7825317,136.7189636,1
848.8098755,852.0997925,-636.7197266,800.7825317,132.8127136,1
847.164856,845.5198975,-636.7197266,804.6887817,136.7189636,1
847.164856,845.5198975,-644.5322876,808.5950317,144.5314789,1
850.454834,842.2299194,-644.5322876,808.5950317,144.5314789,1
847.164856,848.8098755,-640.6259766,800.7825317,148.4377289,1
848.8098755,842.2299194,-640.6259766,800.7825317,148.4377289,1
845.5198975,847.164856,-644.5322876,808.5950317,144.5314789,1
845.5198975,838.9400024,-632.8134766,796.8762207,144.5314789,1
842.2299194,840.5849609,-640.6259766,812.5012817,140.6252136,1
845.5198975,847.164856,-640.6259766,804.6887817,144.5314789,1
850.454834,853.744812,-636.7197266,804.6887817,144.5314789,1
845.5198975,847.164856,-636.7197266,804.6887817,144.5314789,1
848.8098755,847.164856,-640.6259766,808.5950317,140.6252136,1
847.164856,847.164856,-636.7197266,804.6887817,144.5314789,1
847.164856,847.164856,-640.6259766,804.6887817,144.5314789,1
838.9400024,835.6500244,-640.6259766,804.6887817,144.5314789,1
847.164856,840.5849609,-636.7197266,804.6887817,144.5314789,1
847.164856,840.5849609,-640.6259766,804.6887817,144.5314789,1
842.2299194,850.454834,-640.6259766,804.6887817,144.5314789,1
843.874939,850.454834,-640.6259766,808.5950317,144.5314789,1
847.164856,835.6500244,-644.5322876,808.5950317,140.6252136,1
847.164856,835.6500244,-636.7197266,796.8762207,148.4377289,1
842.2299194,853.744812,-636.7197266,796.8762207,148.4377289,1
843.874939,848.8098755,-644.5322876,804.6887817,144.5314789,1
842.2299194,838.9400024,-644.5322876,804.6887817,144.5314789,1
838.9400024,850.454834,-636.7197266,804.6887817,144.5314789,1
845.5198975,845.5198975,-640.6259766,808.5950317,144.5314789,1
845.5198975,853.744812,-640.6259766,804.6887817,144.5314789,1
848.8098755,852.0997925,-640.6259766,804.6887817,144.5314789,1
848.8098755,847.164856,-640.6259766,804.6887817,148.4377289,1
847.164856,843.874939,-640.6259766,804.6887817,144.5314789,1
845.5198975,848.8098755,-640.6259766,804.6887817,144.5314789,1
847.164856,842.2299194,-640.6259766,804.6887817,144.5314789,1
842.2299194,848.8098755,-640.6259766,804.6887817,144.5314789,1
845.5198975,852.0997925,-640.6259766,800.7825317,148.4377289,1
845.5198975,850.454834,-640.6259766,800.7825317,148.4377289,1
843.874939,850.454834,-640.6259766,804.6887817,144.5314789,1
845.5198975,845.5198975,-640.6259766,796.8762207,144.5314789,1
848.8098755,852.0997925,-640.6259766,808.5950317,148.4377289,1
848.8098755,852.0997925,-644.5322876,808.5950317,148.4377289,1
848.8098755,855.3897705,-644.5322876,800.7825317,144.5314789,1
847.164856,853.744812,-644.5322876,800.7825317,144.5314789,1
847.164856,845.5198975,-640.6259766,800.7825317,148.4377289,1
848.8098755,845.5198975,-644.5322876,804.6887817,144.5314789,1
845.5198975,845.5198975,-644.5322876,804.6887817,144.5314789,1
847.164856,840.5849609,-640.6259766,804.6887817,148.4377289,1
842.2299194,843.874939,-640.6259766,804.6887817,148.4377289,1
842.2299194,843.874939,-644.5322876,804.6887817,148.4377289,1
842.2299194,843.874939,-640.6259766,808.5950317,148.4377289,1
843.874939,845.5198975,-640.6259766,808.5950317,148.4377289,1
840.5849609,850.454834,-640.6259766,808.5950317,148.4377289,1
847.164856,853.744812,-640.6259766,796.8762207,148.4377289,1
848.8098755,852.0997925,-640.6259766,796.8762207,148.4377289,1
850.454834,843.874939,-640.6259766,796.8762207,148.4377289,1
850.454834,842.2299194,-644.5322876,804.6887817,148.4377289,1
843.874939,843.874939,-644.5322876,804.6887817,148.4377289,1
842.2299194,847.164856,-640.6259766,800.7825317,148.4377289,1
847.164856,838.9400024,-640.6259766,804.6887817,148.4377289,1
848.8098755,842.2299194,-640.6259766,804.6887817,148.4377289,1
852.0997925,843.874939,-640.6259766,804.6887817,148.4377289,1
850.454834,845.5198975,-640.6259766,800.7825317,148.4377289,1
853.744812,848.8098755,-640.6259766,804.6887817,152.3439941,1
847.164856,845.5198975,-644.5322876,804.6887817,148.4377289,1
847.164856,845.5198975,-640.6259766,804.6887817,152.3439941,1
847.164856,843.874939,-644.5322876,808.5950317,152.3439941,1
852.0997925,850.454834,-640.6259766,800.7825317,152.3439941,1
847.164856,850.454834,-644.5322876,804.6887817,148.4377289,1
845.5198975,850.454834,-644.5322876,804.6887817,148.4377289,1
850.454834,853.744812,-636.7197266,804.6887817,152.3439941,1
842.2299194,853.744812,-636.7197266,804.6887817,152.3439941,1
847.164856,843.874939,-636.7197266,804.6887817,152.3439941,1
847.164856,843.874939,-644.5322876,800.7825317,152.3439941,1
850.454834,848.8098755,-644.5322876,800.7825317,152.3439941,1
848.8098755,850.454834,-644.5322876,800.7825317,152.3439941,1
845.5198975,843.874939,-640.6259766,804.6887817,148.4377289,1
853.744812,848.8098755,-640.6259766,804.6887817,148.4377289,1
857.034729,853.744812,-640.6259766,804.6887817,152.3439941,1
857.034729,853.744812,-644.5322876,804.6887817,148.4377289,1
857.034729,853.744812,-640.6259766,800.7825317,152.3439941,1
860.324707,848.8098755,-640.6259766,800.7825317,152.3439941,1
853.744812,853.744812,-640.6259766,804.6887817,152.3439941,1
855.3897705,847.164856,-640.6259766,800.7825317,148.4377289,1
857.034729,850.454834,-640.6259766,800.7825317,148.4377289,1
853.744812,842.2299194,-640.6259766,804.6887817,152.3439941,1
847.164856,848.8098755,-644.5322876,804.6887817,148.4377289,1
845.5198975,847.164856,-644.5322876,804.6887817,148.4377289,1
858.6797485,842.2299194,-644.5322876,804.6887817,152.3439941,1
853.744812,838.9400024,-640.6259766,800.7825317,152.3439941,1
853.744812,847.164856,-644.5322876,804.6887817,148.4377289,1
860.324707,845.5198975,-644.5322876,804.6887817,148.4377289,1
852.0997925,847.164856,-644.5322876,804.6887817,152.3439941,1
853.744812,845.5198975,-640.6259766,800.7825317,148.4377289,1
850.454834,843.874939,-640.6259766,800.7825317,148.4377289,1
850.454834,843.874939,-640.6259766,804.6887817,148.4377289,1
847.164856,847.164856,-640.6259766,804.6887817,148.4377289,1
840.5849609,843.874939,-640.6259766,804.6887817,152.3439941,1
848.8098755,853.744812,-640.6259766,804.6887817,152.3439941,1
848.8098755,850.454834,-636.7197266,796.8762207,152.3439941,1
845.5198975,843.874939,-636.7197266,796.8762207,152.3439941,1
843.874939,845.5198975,-644.5322876,804.6887817,148.4377289,1
843.874939,843.874939,-644.5322876,800.7825317,148.4377289,1
838.9400024,842.2299194,-640.6259766,804.6887817,148.4377289,1
847.164856,848.8098755,-640.6259766,804.6887817,148.4377289,1
850.454834,847.164856,-640.6259766,804.6887817,148.4377289,1
847.164856,843.874939,-640.6259766,804.6887817,148.4377289,1
845.5198975,858.6797485,-640.6259766,804.6887817,148.4377289,1
852.0997925,850.454834,-640.6259766,804.6887817,148.4377289,1
842.2299194,847.164856,-636.7197266,796.8762207,152.3439941,1
843.874939,847.164856,-636.7197266,796.8762207,152.3439941,1
847.164856,853.744812,-636.7197266,796.8762207,152.3439941,1
838.9400024,845.5198975,-644.5322876,800.7825317,148.4377289,1
842.2299194,850.454834,-644.5322876,800.7825317,148.4377289,1
845.5198975,848.8098755,-640.6259766,800.7825317,148.4377289,1
843.874939,848.8098755,-640.6259766,800.7825317,148.4377289,1
845.5198975,855.3897705,-640.6259766,804.6887817,148.4377289,1
842.2299194,842.2299194,-640.6259766,804.6887817,152.3439941,1
840.5849609,845.5198975,-640.6259766,804.6887817,152.3439941,1
847.164856,852.0997925,-640.6259766,800.7825317,148.4377289,1
843.874939,840.5849609,-640.6259766,804.6887817,152.3439941,1
848.8098755,850.454834,-644.5322876,804.6887817,148.4377289,1
848.8098755,850.454834,-640.6259766,796.8762207,152.3439941,1
843.874939,845.5198975,-640.6259766,808.5950317,152.3439941,1
847.164856,853.744812,-644.5322876,800.7825317,148.4377289,1
840.5849609,852.0997925,-640.6259766,804.6887817,152.3439941,1
838.9400024,847.164856,-640.6259766,804.6887817,152.3439941,1
848.8098755,852.0997925,-644.5322876,804.6887817,148.4377289,1
853.744812,843.874939,-640.6259766,800.7825317,148.4377289,1
850.454834,842.2299194,-644.5322876,800.7825317,152.3439941,1
845.5198975,845.5198975,-640.6259766,808.5950317,148.4377289,1
842.2299194,840.5849609,-640.6259766,808.5950317,148.4377289,1
845.5198975,837.2949829,-640.6259766,804.6887817,152.3439941,1
860.324707,825.7801514,-640.6259766,804.6887817,152.3439941,1
866.9046631,820.8452148,-640.6259766,796.8762207,152.3439941,1
857.034729,832.3600464,-640.6259766,796.8762207,152.3439941,1
853.744812,837.2949829,-644.5322876,804.6887817,152.3439941,1
855.3897705,840.5849609,-644.5322876,804.6887817,152.3439941,1
855.3897705,838.9400024,-640.6259766,800.7825317,152.3439941,1
855.3897705,838.9400024,-640.6259766,804.6887817,152.3439941,1
842.2299194,847.164856,-640.6259766,804.6887817,152.3439941,1
845.5198975,840.5849609,-644.5322876,804.6887817,148.4377289,1
850.454834,840.5849609,-640.6259766,800.7825317,148.4377289,1
850.454834,840.5849609,-640.6259766,800.7825317,152.3439941,1
842.2299194,843.874939,-640.6259766,800.7825317,152.3439941,1
843.874939,855.3897705,-640.6259766,800.7825317,148.4377289,1
843.874939,855.3897705,-636.7197266,796.8762207,152.3439941,1
843.874939,842.2299194,-636.7197266,796.8762207,152.3439941,1
850.454834,842.2299194,-640.6259766,808.5950317,152.3439941,1
843.874939,843.874939,-636.7197266,800.7825317,152.3439941,1
847.164856,848.8098755,-640.6259766,800.7825317,152.3439941,1
853.744812,847.164856,-636.7197266,800.7825317,152.3439941,1
845.5198975,850.454834,-640.6259766,808.5950317,152.3439941,1
850.454834,850.454834,-640.6259766,800.7825317,148.4377289,1
852.0997925,838.9400024,-640.6259766,800.7825317,148.4377289,1
842.2299194,848.8098755,-644.5322876,804.6887817,148.4377289,1
842.2299194,848.8098755,-640.6259766,800.7825317,152.3439941,1
852.0997925,845.5198975,-640.6259766,804.6887817,152.3439941,1
847.164856,843.874939,-644.5322876,804.6887817,148.4377289,1
845.5198975,843.874939,-636.7197266,800.7825317,152.3439941,1
845.5198975,843.874939,-640.6259766,808.5950317,152.3439941,1
847.164856,842.2299194,-640.6259766,808.5950317,152.3439941,1
850.454834,843.874939,-640.6259766,800.7825317,152.3439941,1
842.2299194,852.0997925,-640.6259766,800.7825317,152.3439941,1
845.5198975,840.5849609,-640.6259766,800.7825317,152.3439941,1
845.5198975,845.5198975,-644.5322876,808.5950317,148.4377289,1
843.874939,853.744812,-640.6259766,800.7825317,148.4377289,1
840.5849609,850.454834,-640.6259766,808.5950317,152.3439941,1
848.8098755,847.164856,-644.5322876,800.7825317,152.3439941,1
843.874939,850.454834,-636.7197266,800.7825317,152.3439941,1
853.744812,843.874939,-640.6259766,796.8762207,152.3439941,1
853.744812,843.874939,-636.7197266,800.7825317,152.3439941,1
855.3897705,845.5198975,-636.7197266,800.7825317,152.3439941,1
855.3897705,852.0997925,-636.7197266,800.7825317,152.3439941,1
848.8098755,840.5849609,-644.5322876,800.7825317,152.3439941,1
853.744812,848.8098755,-644.5322876,800.7825317,152.3439941,1
850.454834,850.454834,-644.5322876,800.7825317,152.3439941,1
853.744812,840.5849609,-640.6259766,804.6887817,152.3439941,1
855.3897705,845.5198975,-640.6259766,800.7825317,152.3439941,1
850.454834,850.454834,-640.6259766,800.7825317,152.3439941,1
847.164856,840.5849609,-640.6259766,804.6887817,152.3439941,1
847.164856,842.2299194,-644.5322876,804.6887817,148.4377289,1
848.8098755,847.164856,-640.6259766,804.6887817,156.2502441,1
843.874939,852.0997925,-640.6259766,800.7825317,152.3439941,1
853.744812,852.0997925,-640.6259766,804.6887817,152.3439941,1
855.3897705,852.0997925,-640.6259766,804.6887817,152.3439941,1
861.9697266,842.2299194,-640.6259766,804.6887817,152.3439941,1
850.454834,845.5198975,-640.6259766,800.7825317,152.3439941,1
842.2299194,840.5849609,-636.7197266,800.7825317,156.2502441,1
837.2949829,847.164856,-636.7197266,800.7825317,156.2502441,1
834.0050049,843.874939,-636.7197266,800.7825317,156.2502441,1
843.874939,842.2299194,-640.6259766,800.7825317,152.3439941,1
847.164856,853.744812,-640.6259766,804.6887817,152.3439941,1
843.874939,845.5198975,-640.6259766,800.7825317,156.2502441,1
842.2299194,845.5198975,-640.6259766,804.6887817,152.3439941,1
848.8098755,852.0997925,-640.6259766,800.7825317,152.3439941,1
845.5198975,852.0997925,-640.6259766,800.7825317,152.3439941,1
848.8098755,855.3897705,-640.6259766,804.6887817,152.3439941,1
848.8098755,838.9400024,-644.5322876,804.6887817,152.3439941,1
843.874939,848.8098755,-644.5322876,804.6887817,152.3439941,1
847.164856,847.164856,-640.6259766,808.5950317,152.3439941,1
843.874939,850.454834,-644.5322876,800.7825317,152.3439941,1
848.8098755,835.6500244,-640.6259766,800.7825317,152.3439941,1
847.164856,857.034729,-640.6259766,804.6887817,148.4377289,1
847.164856,857.034729,-636.7197266,796.8762207,156.2502441,1
843.874939,853.744812,-636.7197266,796.8762207,156.2502441,1
842.2299194,855.3897705,-640.6259766,804.6887817,156.2502441,1
842.2299194,843.874939,-640.6259766,804.6887817,156.2502441,1
845.5198975,842.2299194,-640.6259766,804.6887817,156.2502441,1
848.8098755,843.874939,-644.5322876,808.5950317,152.3439941,1
848.8098755,843.874939,-640.6259766,796.8762207,152.3439941,1
840.5849609,840.5849609,-640.6259766,796.8762207,152.3439941,1
847.164856,847.164856,-640.6259766,808.5950317,156.2502441,1
845.5198975,843.874939,-644.5322876,808.5950317,152.3439941,1
852.0997925,837.2949829,-636.7197266,800.7825317,156.2502441,1
850.454834,845.5198975,-640.6259766,804.6887817,156.2502441,1
850.454834,847.164856,-640.6259766,800.7825317,152.3439941,1
848.8098755,843.874939,-640.6259766,800.7825317,152.3439941,1
840.5849609,847.164856,-640.6259766,804.6887817,156.2502441,1
848.8098755,860.324707,-640.6259766,808.5950317,156.2502441,1
845.5198975,850.454834,-640.6259766,808.5950317,156.2502441,1
850.454834,840.5849609,-640.6259766,800.7825317,156.2502441,1
843.874939,850.454834,-636.7197266,804.6887817,152.3439941,1
852.0997925,852.0997925,-640.6259766,800.7825317,152.3439941,1
852.0997925,857.034729,-640.6259766,804.6887817,156.2502441,1
852.0997925,857.034729,-640.6259766,804.6887817,152.3439941,1
845.5198975,853.744812,-640.6259766,800.7825317,152.3439941,1
852.0997925,847.164856,-636.7197266,796.8762207,156.2502441,1
850.454834,845.5198975,-636.7197266,800.7825317,152.3439941,1
850.454834,852.0997925,-636.7197266,800.7825317,152.3439941,1
850.454834,855.3897705,-640.6259766,800.7825317,156.2502441,1
853.744812,850.454834,-640.6259766,804.6887817,152.3439941,1
843.874939,838.9400024,-640.6259766,804.6887817,152.3439941,1
845.5198975,850.454834,-640.6259766,804.6887817,152.3439941,1
848.8098755,845.5198975,-644.5322876,808.5950317,156.2502441,1
852.0997925,847.164856,-640.6259766,808.5950317,156.2502441,1
847.164856,840.5849609,-640.6259766,800.7825317,156.2502441,1
852.0997925,845.5198975,-640.6259766,804.6887817,156.2502441,1
848.8098755,843.874939,-640.6259766,804.6887817,156.2502441,1
845.5198975,855.3897705,-640.6259766,800.7825317,156.2502441,1
838.9400024,855.3897705,-640.6259766,800.7825317,156.2502441,1
843.874939,845.5198975,-636.7197266,796.8762207,156.2502441,1
850.454834,847.164856,-640.6259766,808.5950317,156.2502441,1
848.8098755,840.5849609,-640.6259766,800.7825317,156.2502441,1
868.5496216,840.5849609,-640.6259766,800.7825317,156.2502441,1
860.324707,850.454834,-640.6259766,804.6887817,152.3439941,1
860.324707,850.454834,-640.6259766,800.7825317,156.2502441,1
837.2949829,843.874939,-640.6259766,800.7825317,156.2502441,1
837.2949829,843.874939,-640.6259766,804.6887817,156.2502441,1
838.9400024,843.874939,-640.6259766,804.6887817,156.2502441,1
847.164856,852.0997925,-640.6259766,800.7825317,156.2502441,1
847.164856,847.164856,-640.6259766,804.6887817,156.2502441,1
847.164856,852.0997925,-644.5322876,804.6887817,152.3439941,1
848.8098755,848.8098755,-640.6259766,808.5950317,156.2502441,1
852.0997925,840.5849609,-640.6259766,800.7825317,156.2502441,1
848.8098755,842.2299194,-640.6259766,804.6887817,156.2502441,1
848.8098755,842.2299194,-640.6259766,800.7825317,156.2502441,1
847.164856,843.874939,-640.6259766,800.7825317,156.2502441,1
855.3897705,853.744812,-640.6259766,800.7825317,156.2502441,1
855.3897705,853.744812,-640.6259766,804.6887817,156.2502441,1
843.874939,848.8098755,-640.6259766,800.7825317,156.2502441,1
848.8098755,853.744812,-640.6259766,800.7825317,156.2502441,1
848.8098755,853.744812,-636.7197266,796.8762207,156.2502441,1
845.5198975,850.454834,-636.7197266,796.8762207,156.2502441,1
852.0997925,852.0997925,-640.6259766,800.7825317,156.2502441,1
842.2299194,853.744812,-640.6259766,804.6887817,156.2502441,1
847.164856,842.2299194,-640.6259766,800.7825317,156.2502441,1
845.5198975,853.744812,-640.6259766,800.7825317,156.2502441,1
850.454834,845.5198975,-640.6259766,800.7825317,156.2502441,1
850.454834,847.164856,-644.5322876,804.6887817,156.2502441,1
852.0997925,845.5198975,-640.6259766,800.7825317,156.2502441,1
845.5198975,843.874939,-640.6259766,808.5950317,156.2502441,1
848.8098755,843.874939,-640.6259766,808.5950317,156.2502441,1
840.5849609,855.3897705,-640.6259766,800.7825317,156.2502441,1
845.5198975,853.744812,-640.6259766,804.6887817,156.2502441,1
843.874939,853.744812,-640.6259766,804.6887817,156.2502441,1
843.874939,843.874939,-640.6259766,800.7825317,156.2502441,1
845.5198975,837.2949829,-640.6259766,800.7825317,156.2502441,1
845.5198975,835.6500244,-640.6259766,800.7825317,156.2502441,1
843.874939,855.3897705,-640.6259766,804.6887817,156.2502441,1
865.2596436,822.4901733,-640.6259766,804.6887817,156.2502441,1
861.9697266,824.1351318,-640.6259766,804.6887817,156.2502441,1
852.0997925,842.2299194,-640.6259766,804.6887817,156.2502441,1
855.3897705,847.164856,-640.6259766,804.6887817,156.2502441,1
845.5198975,852.0997925,-640.6259766,804.6887817,156.2502441,1
845.5198975,852.0997925,-640.6259766,800.7825317,160.1564941,1
850.454834,840.5849609,-640.6259766,804.6887817,156.2502441,1
850.454834,848.8098755,-640.6259766,804.6887817,156.2502441,1
845.5198975,848.8098755,-644.5322876,808.5950317,156.2502441,1
842.2299194,850.454834,-644.5322876,808.5950317,156.2502441,1
847.164856,847.164856,-636.7197266,800.7825317,156.2502441,1
847.164856,847.164856,-640.6259766,800.7825317,156.2502441,1
840.5849609,850.454834,-640.6259766,800.7825317,160.1564941,1
842.2299194,850.454834,-640.6259766,804.6887817,160.1564941,1
845.5198975,847.164856,-640.6259766,804.6887817,160.1564941,1
845.5198975,840.5849609,-640.6259766,804.6887817,160.1564941,1
857.034729,853.744812,-640.6259766,800.7825317,156.2502441,1
853.744812,848.8098755,-640.6259766,804.6887817,156.2502441,1
853.744812,860.324707,-640.6259766,800.7825317,160.1564941,1
853.744812,858.6797485,-640.6259766,804.6887817,156.2502441,1
847.164856,850.454834,-640.6259766,800.7825317,156.2502441,1
848.8098755,848.8098755,-636.7197266,800.7825317,156.2502441,1
845.5198975,858.6797485,-640.6259766,800.7825317,160.1564941,1
850.454834,845.5198975,-636.7197266,800.7825317,160.1564941,1
845.5198975,838.9400024,-640.6259766,804.6887817,156.2502441,1
850.454834,842.2299194,-640.6259766,800.7825317,156.2502441,1
853.744812,852.0997925,-640.6259766,800.7825317,160.1564941,1
855.3897705,842.2299194,-640.6259766,800.7825317,160.1564941,1
853.744812,845.5198975,-640.6259766,804.6887817,156.2502441,1
852.0997925,850.454834,-636.7197266,804.6887817,160.1564941,1
848.8098755,853.744812,-636.7197266,804.6887817,160.1564941,1
842.2299194,842.2299194,-640.6259766,804.6887817,156.2502441,1
843.874939,843.874939,-640.6259766,800.7825317,160.1564941,1
853.744812,848.8098755,-640.6259766,800.7825317,156.2502441,1
866.9046631,852.0997925,-640.6259766,800.7825317,156.2502441,1
858.6797485,860.324707,-640.6259766,804.6887817,160.1564941,1
863.6146851,850.454834,-640.6259766,804.6887817,160.1564941,1
868.5496216,845.5198975,-640.6259766,800.7825317,160.1564941,1
852.0997925,852.0997925,-640.6259766,800.7825317,160.1564941,1
852.0997925,852.0997925,-644.5322876,804.6887817,156.2502441,1
850.454834,848.8098755,-644.5322876,804.6887817,156.2502441,1
842.2299194,848.8098755,-640.6259766,808.5950317,160.1564941,1
842.2299194,850.454834,-640.6259766,808.5950317,160.1564941,1
840.5849609,847.164856,-640.6259766,800.7825317,160.1564941,1
843.874939,848.8098755,-640.6259766,800.7825317,160.1564941,1
840.5849609,842.2299194,-640.6259766,804.6887817,156.2502441,1
842.2299194,847.164856,-640.6259766,804.6887817,156.2502441,1
842.2299194,840.5849609,-640.6259766,800.7825317,156.2502441,1
843.874939,835.6500244,-640.6259766,800.7825317,156.2502441,1
843.874939,835.6500244,-640.6259766,804.6887817,160.1564941,1
850.454834,848.8098755,-640.6259766,804.6887817,160.1564941,1
847.164856,850.454834,-640.6259766,804.6887817,160.1564941,1
847.164856,852.0997925,-640.6259766,804.6887817,160.1564941,1
847.164856,845.5198975,-644.5322876,804.6887817,156.2502441,1
845.5198975,848.8098755,-636.7197266,796.8762207,160.1564941,1
840.5849609,848.8098755,-640.6259766,804.6887817,160.1564941,1
842.2299194,847.164856,-636.7197266,800.7825317,156.2502441,1
843.874939,855.3897705,-636.7197266,800.7825317,156.2502441,1
843.874939,843.874939,-640.6259766,804.6887817,160.1564941,1
840.5849609,848.8098755,-640.6259766,800.7825317,156.2502441,1
837.2949829,847.164856,-640.6259766,800.7825317,156.2502441,1
838.9400024,850.454834,-640.6259766,804.6887817,156.2502441,1
845.5198975,850.454834,-640.6259766,804.6887817,160.1564941,1
845.5198975,852.0997925,-644.5322876,804.6887817,156.2502441,1
848.8098755,847.164856,-644.5322876,804.6887817,156.2502441,1
855.3897705,843.874939,-640.6259766,808.5950317,160.1564941,1
843.874939,847.164856,-636.7197266,800.7825317,156.2502441,1
852.0997925,840.5849609,-636.7197266,800.7825317,156.2502441,1
845.5198975,853.744812,-640.6259766,804.6887817,160.1564941,1
850.454834,855.3897705,-640.6259766,800.7825317,160.1564941,1
842.2299194,840.5849609,-640.6259766,800.7825317,160.1564941,1
842.2299194,842.2299194,-640.6259766,804.6887817,160.1564941,1
848.8098755,845.5198975,-636.7197266,796.8762207,160.1564941,1
847.164856,847.164856,-640.6259766,800.7825317,160.1564941,1
842.2299194,848.8098755,-636.7197266,800.7825317,160.1564941,1
845.5198975,843.874939,-636.7197266,800.7825317,160.1564941,1
847.164856,842.2299194,-640.6259766,804.6887817,160.1564941,1
847.164856,842.2299194,-640.6259766,800.7825317,160.1564941,1
848.8098755,850.454834,-640.6259766,800.7825317,160.1564941,1
848.8098755,843.874939,-644.5322876,804.6887817,160.1564941,1
853.744812,842.2299194,-640.6259766,804.6887817,160.1564941,1
853.744812,847.164856,-640.6259766,804.6887817,160.1564941,1
855.3897705,855.3897705,-640.6259766,800.7825317,160.1564941,1
853.744812,845.5198975,-640.6259766,804.6887817,160.1564941,1
850.454834,843.874939,-640.6259766,800.7825317,160.1564941,1
848.8098755,853.744812,-644.5322876,804.6887817,156.2502441,1
850.454834,852.0997925,-636.7197266,800.7825317,164.0627594,1
850.454834,852.0997925,-640.6259766,808.5950317,160.1564941,1
853.744812,855.3897705,-640.6259766,800.7825317,160.1564941,1
848.8098755,848.8098755,-636.7197266,800.7825317,160.1564941,1
847.164856,853.744812,-640.6259766,800.7825317,160.1564941,1
843.874939,850.454834,-640.6259766,800.7825317,160.1564941,1
848.8098755,847.164856,-640.6259766,800.7825317,160.1564941,1
845.5198975,845.5198975,-640.6259766,804.6887817,160.1564941,1
838.9400024,840.5849609,-640.6259766,800.7825317,160.1564941,1
845.5198975,847.164856,-636.7197266,800.7825317,164.0627594,1
845.5198975,852.0997925,-640.6259766,804.6887817,160.1564941,1
850.454834,838.9400024,-636.7197266,800.7825317,160.1564941,1
850.454834,857.034729,-636.7197266,800.7825317,164.0627594,1
850.454834,857.034729,-640.6259766,804.6887817,160.1564941,1
853.744812,843.874939,-640.6259766,800.7825317,164.0627594,1
842.2299194,845.5198975,-640.6259766,800.7825317,164.0627594,1
847.164856,847.164856,-640.6259766,800.7825317,164.0627594,1
842.2299194,843.874939,-640.6259766,804.6887817,164.0627594,1
842.2299194,852.0997925,-640.6259766,804.6887817,160.1564941,1
845.5198975,855.3897705,-640.6259766,804.6887817,160.1564941,1
850.454834,838.9400024,-636.7197266,800.7825317,164.0627594,1
850.454834,838.9400024,-640.6259766,808.5950317,164.0627594,1
847.164856,845.5198975,-640.6259766,808.5950317,164.0627594,1
840.5849609,852.0997925,-640.6259766,808.5950317,164.0627594,1
843.874939,850.454834,-640.6259766,800.7825317,164.0627594,1
847.164856,847.164856,-636.7197266,796.8762207,164.0627594,1
843.874939,848.8098755,-636.7197266,796.8762207,164.0627594,1
843.874939,848.8098755,-640.6259766,800.7825317,164.0627594,1
843.874939,845.5198975,-636.7197266,796.8762207,164.0627594,1
845.5198975,850.454834,-636.7197266,800.7825317,164.0627594,1
837.2949829,848.8098755,-640.6259766,800.7825317,164.0627594,1
843.874939,853.744812,-640.6259766,804.6887817,164.0627594,1
847.164856,845.5198975,-640.6259766,800.7825317,160.1564941,1
848.8098755,853.744812,-640.6259766,800.7825317,167.9690094,1
840.5849609,852.0997925,-640.6259766,804.6887817,164.0627594,1
845.5198975,850.454834,-636.7197266,796.8762207,167.9690094,1
845.5198975,850.454834,-640.6259766,804.6887817,167.9690094,1
845.5198975,847.164856,-640.6259766,804.6887817,164.0627594,1
842.2299194,842.2299194,-640.6259766,800.7825317,164.0627594,1
848.8098755,837.2949829,-640.6259766,800.7825317,164.0627594,1
848.8098755,837.2949829,-640.6259766,804.6887817,164.0627594,1
850.454834,843.874939,-640.6259766,804.6887817,164.0627594,1
858.6797485,845.5198975,-640.6259766,800.7825317,164.0627594,1
857.034729,843.874939,-640.6259766,800.7825317,164.0627594,1
870.1945801,822.4901733,-640.6259766,800.7825317,164.0627594,1
858.6797485,825.7801514,-636.7197266,800.7825317,164.0627594,1
855.3897705,832.3600464,-636.7197266,796.8762207,164.0627594,1
848.8098755,832.3600464,-636.7197266,796.8762207,164.0627594,1
848.8098755,845.5198975,-640.6259766,800.7825317,160.1564941,1
845.5198975,850.454834,-640.6259766,800.7825317,164.0627594,1
845.5198975,843.874939,-640.6259766,800.7825317,164.0627594,1
843.874939,838.9400024,-640.6259766,800.7825317,164.0627594,1
848.8098755,842.2299194,-640.6259766,800.7825317,164.0627594,1
852.0997925,843.874939,-636.7197266,800.7825317,164.0627594,1
852.0997925,843.874939,-640.6259766,800.7825317,164.0627594,1
847.164856,848.8098755,-640.6259766,804.6887817,164.0627594,1
847.164856,855.3897705,-640.6259766,804.6887817,164.0627594,1
837.2949829,843.874939,-640.6259766,800.7825317,164.0627594,1
842.2299194,848.8098755,-640.6259766,800.7825317,164.0627594,1
842.2299194,848.8098755,-640.6259766,804.6887817,164.0627594,1
842.2299194,848.8098755,-644.5322876,804.6887817,160.1564941,1
845.5198975,857.034729,-636.7197266,796.8762207,160.1564941,1
850.454834,845.5198975,-636.7197266,808.5950317,164.0627594,1
848.8098755,843.874939,-640.6259766,800.7825317,164.0627594,1
847.164856,848.8098755,-640.6259766,800.7825317,164.0627594,1
845.5198975,842.2299194,-640.6259766,800.7825317,164.0627594,1
842.2299194,838.9400024,-640.6259766,804.6887817,164.0627594,1
842.2299194,838.9400024,-640.6259766,800.7825317,164.0627594,1
842.2299194,843.874939,-636.7197266,800.7825317,164.0627594,1
847.164856,843.874939,-640.6259766,804.6887817,164.0627594,1
852.0997925,848.8098755,-640.6259766,804.6887817,164.0627594,1
848.8098755,852.0997925,-636.7197266,792.9699707,164.0627594,1
842.2299194,855.3897705,-636.7197266,792.9699707,164.0627594,1
848.8098755,843.874939,-640.6259766,804.6887817,164.0627594,1
843.874939,840.5849609,-636.7197266,800.7825317,164.0627594,1
843.874939,840.5849609,-640.6259766,800.7825317,164.0627594,1
848.8098755,855.3897705,-640.6259766,804.6887817,164.0627594,1
847.164856,852.0997925,-640.6259766,804.6887817,164.0627594,1
847.164856,852.0997925,-636.7197266,804.6887817,164.0627594,1
848.8098755,850.454834,-636.7197266,804.6887817,164.0627594,1
850.454834,855.3897705,-640.6259766,800.7825317,164.0627594,1
842.2299194,850.454834,-640.6259766,800.7825317,164.0627594,1
842.2299194,850.454834,-640.6259766,804.6887817,164.0627594,1
850.454834,852.0997925,-632.8134766,800.7825317,167.9690094,1
842.2299194,850.454834,-632.8134766,800.7825317,167.9690094,1
848.8098755,850.454834,-644.5322876,800.7825317,164.0627594,1
843.874939,850.454834,-644.5322876,800.7825317,164.0627594,1
840.5849609,845.5198975,-636.7197266,800.7825317,164.0627594,1
847.164856,842.2299194,-640.6259766,800.7825317,164.0627594,1
847.164856,842.2299194,-636.7197266,800.7825317,164.0627594,1
850.454834,840.5849609,-636.7197266,800.7825317,167.9690094,1
845.5198975,853.744812,-640.6259766,800.7825317,164.0627594,1
848.8098755,842.2299194,-640.6259766,804.6887817,167.9690094,1
845.5198975,845.5198975,-636.7197266,800.7825317,164.0627594,1
848.8098755,852.0997925,-636.7197266,800.7825317,164.0627594,1
847.164856,850.454834,-636.7197266,804.6887817,164.0627594,1
847.164856,850.454834,-636.7197266,800.7825317,164.0627594,1
853.744812,848.8098755,-640.6259766,800.7825317,164.0627594,1
852.0997925,852.0997925,-640.6259766,800.7825317,164.0627594,1
852.0997925,852.0997925,-636.7197266,800.7825317,164.0627594,1
857.034729,852.0997925,-640.6259766,804.6887817,164.0627594,1
845.5198975,842.2299194,-636.7197266,800.7825317,167.9690094,1
852.0997925,850.454834,-636.7197266,800.7825317,167.9690094,1
852.0997925,857.034729,-640.6259766,796.8762207,164.0627594,1
852.0997925,857.034729,-636.7197266,796.8762207,167.9690094,1
847.164856,853.744812,-636.7197266,796.8762207,167.9690094,1
848.8098755,848.8098755,-640.6259766,808.5950317,167.9690094,1
848.8098755,848.8098755,-640.6259766,804.6887817,164.0627594,1
853.744812,848.8098755,-640.6259766,804.6887817,164.0627594,1
848.8098755,842.2299194,-636.7197266,800.7825317,164.0627594,1
850.454834,842.2299194,-636.7197266,800.7825317,164.0627594,1
848.8098755,847.164856,-640.6259766,804.6887817,164.0627594,1
852.0997925,845.5198975,-636.7197266,804.6887817,167.9690094,1
850.454834,840.5849609,-636.7197266,804.6887817,167.9690094,1
843.874939,852.0997925,-636.7197266,804.6887817,167.9690094,1
847.164856,855.3897705,-636.7197266,800.7825317,164.0627594,1
843.874939,853.744812,-640.6259766,800.7825317,164.0627594,1
853.744812,853.744812,-640.6259766,804.6887817,167.9690094,1
842.2299194,855.3897705,-640.6259766,804.6887817,167.9690094,1
847.164856,853.744812,-640.6259766,804.6887817,164.0627594,1
852.0997925,845.5198975,-640.6259766,808.5950317,164.0627594,1
852.0997925,853.744812,-640.6259766,808.5950317,164.0627594,1
853.744812,852.0997925,-640.6259766,800.7825317,164.0627594,1
852.0997925,845.5198975,-636.7197266,800.7825317,164.0627594,1
848.8098755,848.8098755,-636.7197266,804.6887817,167.9690094,1
845.5198975,840.5849609,-640.6259766,800.7825317,164.0627594,1
848.8098755,845.5198975,-640.6259766,800.7825317,167.9690094,1
843.874939,855.3897705,-644.5322876,804.6887817,164.0627594,1
848.8098755,847.164856,-636.7197266,796.8762207,167.9690094,1
847.164856,850.454834,-636.7197266,796.8762207,167.9690094,1
852.0997925,857.034729,-640.6259766,804.6887817,167.9690094,1
852.0997925,848.8098755,-636.7197266,800.7825317,167.9690094,1
847.164856,843.874939,-636.7197266,800.7825317,167.9690094,1
852.0997925,855.3897705,-640.6259766,800.7825317,167.9690094,1
852.0997925,843.874939,-640.6259766,804.6887817,164.0627594,1
838.9400024,852.0997925,-640.6259766,804.6887817,164.0627594,1
847.164856,853.744812,-636.7197266,800.7825317,164.0627594,1
848.8098755,857.034729,-640.6259766,804.6887817,167.9690094,1
852.0997925,843.874939,-640.6259766,804.6887817,167.9690094,1
850.454834,837.2949829,-636.7197266,800.7825317,167.9690094,1
845.5198975,845.5198975,-636.7197266,800.7825317,167.9690094,1
848.8098755,852.0997925,-640.6259766,800.7825317,164.0627594,1
845.5198975,843.874939,-636.7197266,800.7825317,167.9690094,1
843.874939,843.874939,-640.6259766,800.7825317,167.9690094,1
842.2299194,845.5198975,-640.6259766,800.7825317,167.9690094,1
850.454834,853.744812,-636.7197266,800.7825317,167.9690094,1
853.744812,845.5198975,-640.6259766,800.7825317,164.0627594,1
850.454834,847.164856,-640.6259766,804.6887817,167.9690094,1
850.454834,848.8098755,-636.7197266,800.7825317,167.9690094,1
848.8098755,855.3897705,-636.7197266,796.8762207,164.0627594,1
852.0997925,850.454834,-636.7197266,796.8762207,164.0627594,1
848.8098755,848.8098755,-640.6259766,800.7825317,167.9690094,1
848.8098755,848.8098755,-636.7197266,800.7825317,164.0627594,1
847.164856,840.5849609,-640.6259766,804.6887817,164.0627594,1
847.164856,838.9400024,-640.6259766,800.7825317,167.9690094,1
848.8098755,843.874939,-640.6259766,800.7825317,167.9690094,1
848.8098755,857.034729,-640.6259766,800.7825317,167.9690094,1
843.874939,848.8098755,-636.7197266,796.8762207,167.9690094,1
843.874939,848.8098755,-636.7197266,804.6887817,167.9690094,1
847.164856,852.0997925,-636.7197266,804.6887817,167.9690094,1
843.874939,847.164856,-640.6259766,800.7825317,164.0627594,1
848.8098755,843.874939,-636.7197266,800.7825317,167.9690094,1
838.9400024,853.744812,-640.6259766,800.7825317,164.0627594,1
843.874939,845.5198975,-640.6259766,804.6887817,167.9690094,1
845.5198975,842.2299194,-640.6259766,804.6887817,167.9690094,1
845.5198975,847.164856,-636.7197266,800.7825317,167.9690094,1
838.9400024,852.0997925,-636.7197266,804.6887817,167.9690094,1
838.9400024,852.0997925,-640.6259766,800.7825317,167.9690094,1
838.9400024,852.0997925,-636.7197266,800.7825317,167.9690094,1
840.5849609,848.8098755,-636.7197266,800.7825317,167.9690094,1
843.874939,845.5198975,-636.7197266,804.6887817,167.9690094,1
845.5198975,842.2299194,-636.7197266,796.8762207,167.9690094,1
843.874939,842.2299194,-636.7197266,796.8762207,167.9690094,1
840.5849609,845.5198975,-640.6259766,800.7825317,167.9690094,1
848.8098755,843.874939,-636.7197266,804.6887817,167.9690094,1
837.2949829,850.454834,-636.7197266,804.6887817,167.9690094,1
852.0997925,850.454834,-640.6259766,804.6887817,167.9690094,1
848.8098755,848.8098755,-636.7197266,800.7825317,167.9690094,1
843.874939,845.5198975,-636.7197266,800.7825317,167.9690094,1
845.5198975,840.5849609,-640.6259766,800.7825317,167.9690094,1
845.5198975,843.874939,-640.6259766,800.7825317,167.9690094,1
848.8098755,853.744812,-636.7197266,804.6887817,167.9690094,1
847.164856,848.8098755,-640.6259766,796.8762207,167.9690094,1
843.874939,840.5849609,-636.7197266,796.8762207,164.0627594,1
845.5198975,853.744812,-636.7197266,800.7825317,167.9690094,1
845.5198975,845.5198975,-640.6259766,800.7825317,167.9690094,1
843.874939,853.744812,-640.6259766,800.7825317,167.9690094,1
842.2299194,857.034729,-640.6259766,800.7825317,167.9690094,1
845.5198975,853.744812,-640.6259766,800.7825317,167.9690094,1
840.5849609,847.164856,-640.6259766,800.7825317,167.9690094,1
848.8098755,855.3897705,-640.6259766,800.7825317,167.9690094,1
848.8098755,852.0997925,-640.6259766,796.8762207,167.9690094,1
848.8098755,852.0997925,-640.6259766,800.7825317,167.9690094,1
847.164856,860.324707,-640.6259766,800.7825317,167.9690094,1
847.164856,860.324707,-636.7197266,800.7825317,167.9690094,1
853.744812,860.324707,-636.7197266,800.7825317,167.9690094,1
845.5198975,848.8098755,-644.5322876,804.6887817,167.9690094,1
843.874939,847.164856,-640.6259766,800.7825317,167.9690094,1
847.164856,847.164856,-640.6259766,800.7825317,171.8752747,1
843.874939,845.5198975,-640.6259766,800.7825317,167.9690094,1
842.2299194,842.2299194,-636.7197266,800.7825317,167.9690094,1
848.8098755,850.454834,-636.7197266,800.7825317,167.9690094,1
847.164856,852.0997925,-636.7197266,800.7825317,167.9690094,1
853.744812,848.8098755,-640.6259766,800.7825317,167.9690094,1
852.0997925,850.454834,-640.6259766,800.7825317,167.9690094,1
847.164856,842.2299194,-640.6259766,800.7825317,167.9690094,1
852.0997925,847.164856,-640.6259766,800.7825317,167.9690094,1
847.164856,852.0997925,-644.5322876,804.6887817,167.9690094,1
848.8098755,852.0997925,-644.5322876,804.6887817,167.9690094,1
848.8098755,847.164856,-644.5322876,804.6887817,167.9690094,1
840.5849609,843.874939,-644.5322876,804.6887817,167.9690094,1
847.164856,842.2299194,-644.5322876,804.6887817,167.9690094,1
850.454834,848.8098755,-644.5322876,796.8762207,167.9690094,1
852.0997925,853.744812,-644.5322876,796.8762207,167.9690094,1
845.5198975,847.164856,-636.7197266,796.8762207,167.9690094,1
845.5198975,847.164856,-640.6259766,800.7825317,167.9690094,1
847.164856,847.164856,-648.4385376,796.8762207,167.9690094,1
853.744812,843.874939,-640.6259766,800.7825317,171.8752747,1
853.744812,843.874939,-644.5322876,800.7825317,171.8752747,1
845.5198975,843.874939,-644.5322876,800.7825317,171.8752747,1
847.164856,858.6797485,-656.2510376,781.2512207,164.0627594,1
847.164856,858.6797485,-648.4385376,792.9699707,167.9690094,1
845.5198975,842.2299194,-648.4385376,792.9699707,167.9690094,1
845.5198975,842.2299194,-640.6259766,777.3449707,171.8752747,1
843.874939,840.5849609,-636.7197266,781.2512207,164.0627594,1
843.874939,840.5849609,-671.8760376,742.1886597,164.0627594,1
843.874939,840.5849609,-734.3761597,687.5010986,160.1564941,1
845.5198975,838.9400024,-734.3761597,687.5010986,160.1564941,1
843.874939,820.8452148,-722.6574097,746.0949097,167.9690094,1
843.874939,820.8452148,-765.6262207,707.0323486,164.0627594,1
837.2949829,824.1351318,-691.4073486,769.5324707,164.0627594,1
838.9400024,837.2949829,-683.5948486,761.7199707,148.4377289,1
840.5849609,834.0050049,-679.6885376,761.7199707,144.5314789,1
842.2299194,838.9400024,-679.6885376,761.7199707,144.5314789,1
837.2949829,842.2299194,-675.7822876,781.2512207,152.3439941,1
837.2949829,842.2299194,-691.4073486,769.5324707,152.3439941,1
838.9400024,842.2299194,-691.4073486,769.5324707,152.3439941,1
842.2299194,829.0700684,-683.5948486,769.5324707,144.5314789,1
842.2299194,822.4901733,-679.6885376,750.0011597,140.6252136,1
842.2299194,832.3600464,-679.6885376,750.0011597,140.6252136,1
837.2949829,822.4901733,-695.3135986,753.9074097,136.7189636,1
838.9400024,820.8452148,-695.3135986,753.9074097,136.7189636,1
837.2949829,832.3600464,-707.0323486,804.6887817,125.0001984,1
848.8098755,830.7150879,-691.4073486,765.6262207,117.1876831,1
863.6146851,827.4251099,-691.4073486,765.6262207,117.1876831,1
855.3897705,870.1945801,-664.0635376,769.5324707,128.9064484,1
848.8098755,878.4194946,-679.6885376,773.4387207,74.21886444,1
838.9400024,860.324707,-679.6885376,773.4387207,74.21886444,1
850.454834,829.0700684,-671.8760376,765.6262207,66.40635681,1
838.9400024,827.4251099,-671.8760376,761.7199707,82.0313797,1
842.2299194,820.8452148,-703.1260986,769.5324707,109.3751678,1
842.2299194,820.8452148,-695.3135986,773.4387207,101.5626602,1
842.2299194,824.1351318,-695.3135986,773.4387207,101.5626602,1
838.9400024,827.4251099,-683.5948486,773.4387207,97.65640259,1
838.9400024,827.4251099,-683.5948486,769.5324707,97.65640259,1
834.0050049,820.8452148,-683.5948486,769.5324707,97.65640259,1
834.0050049,825.7801514,-691.4073486,765.6262207,101.5626602,1
834.0050049,825.7801514,-695.3135986,761.7199707,105.4689178,1
830.7150879,820.8452148,-695.3135986,761.7199707,109.3751678,1
830.7150879,820.8452148,-691.4073486,761.7199707,109.3751678,1
830.7150879,820.8452148,-691.4073486,761.7199707,113.2814255,1
830.7150879,825.7801514,-691.4073486,761.7199707,113.2814255,1
835.6500244,830.7150879,-695.3135986,765.6262207,113.2814255,1
832.3600464,830.7150879,-695.3135986,769.5324707,113.2814255,1
835.6500244,824.1351318,-695.3135986,761.7199707,109.3751678,1
835.6500244,824.1351318,-691.4073486,769.5324707,105.4689178,1
834.0050049,825.7801514,-687.5010986,757.8136597,105.4689178,1
843.874939,832.3600464,-687.5010986,757.8136597,105.4689178,1
843.874939,820.8452148,-691.4073486,765.6262207,105.4689178,1
838.9400024,827.4251099,-691.4073486,765.6262207,105.4689178,1
845.5198975,827.4251099,-691.4073486,757.8136597,105.4689178,1
845.5198975,827.4251099,-695.3135986,761.7199707,109.3751678,1
845.5198975,830.7150879,-691.4073486,761.7199707,109.3751678,1
838.9400024,825.7801514,-695.3135986,765.6262207,113.2814255,1
838.9400024,825.7801514,-691.4073486,761.7199707,109.3751678,1
837.2949829,829.0700684,-691.4073486,761.7199707,109.3751678,1
842.2299194,825.7801514,-691.4073486,761.7199707,109.3751678,1
840.5849609,829.0700684,-691.4073486,761.7199707,109.3751678,1
838.9400024,829.0700684,-691.4073486,761.7199707,109.3751678,1
837.2949829,827.4251099,-695.3135986,761.7199707,113.2814255,1
838.9400024,827.4251099,-695.3135986,761.7199707,113.2814255,1
838.9400024,830.7150879,-695.3135986,757.8136597,113.2814255,1
838.9400024,824.1351318,-695.3135986,765.6262207,113.2814255,1
842.2299194,824.1351318,-695.3135986,765.6262207,109.3751678,1
842.2299194,824.1351318,-691.4073486,761.7199707,113.2814255,1
853.744812,824.1351318,-695.3135986,761.7199707,113.2814255,1
843.874939,829.0700684,-695.3135986,757.8136597,113.2814255,1
838.9400024,824.1351318,-695.3135986,757.8136597,113.2814255,1
842.2299194,822.4901733,-695.3135986,761.7199707,113.2814255,1
838.9400024,824.1351318,-695.3135986,761.7199707,113.2814255,1
838.9400024,822.4901733,-691.4073486,761.7199707,113.2814255,1
842.2299194,830.7150879,-691.4073486,757.8136597,113.2814255,1
842.2299194,824.1351318,-691.4073486,757.8136597,113.2814255,1
843.874939,834.0050049,-695.3135986,761.7199707,113.2814255,1
843.874939,834.0050049,-691.4073486,757.8136597,113.2814255,1
848.8098755,827.4251099,-687.5010986,757.8136597,117.1876831,1
842.2299194,830.7150879,-695.3135986,761.7199707,113.2814255,1
845.5198975,830.7150879,-695.3135986,761.7199707,113.2814255,1
845.5198975,834.0050049,-691.4073486,761.7199707,113.2814255,1
843.874939,824.1351318,-695.3135986,761.7199707,113.2814255,1
847.164856,820.8452148,-695.3135986,761.7199707,113.2814255,1
840.5849609,830.7150879,-691.4073486,757.8136597,117.1876831,1
840.5849609,830.7150879,-695.3135986,761.7199707,117.1876831,1
842.2299194,824.1351318,-695.3135986,761.7199707,117.1876831,1
843.874939,830.7150879,-695.3135986,761.7199707,117.1876831,1
845.5198975,832.3600464,-695.3135986,761.7199707,117.1876831,1
837.2949829,835.6500244,-695.3135986,761.7199707,117.1876831,1
838.9400024,827.4251099,-691.4073486,761.7199707,113.2814255,1
840.5849609,834.0050049,-691.4073486,757.8136597,113.2814255,1
840.5849609,834.0050049,-695.3135986,757.8136597,117.1876831,1
840.5849609,834.0050049,-695.3135986,765.6262207,117.1876831,1
838.9400024,830.7150879,-695.3135986,765.6262207,117.1876831,1
845.5198975,834.0050049,-695.3135986,761.7199707,117.1876831,1
842.2299194,829.0700684,-691.4073486,761.7199707,121.0939407,1
842.2299194,829.0700684,-695.3135986,765.6262207,117.1876831,1
843.874939,832.3600464,-695.3135986,765.6262207,117.1876831,1
840.5849609,830.7150879,-695.3135986,757.8136597,117.1876831,1
843.874939,822.4901733,-695.3135986,757.8136597,117.1876831,1
845.5198975,827.4251099,-691.4073486,757.8136597,121.0939407,1
845.5198975,834.0050049,-691.4073486,765.6262207,121.0939407,1
845.5198975,834.0050049,-695.3135986,765.6262207,117.1876831,1
845.5198975,834.0050049,-691.4073486,761.7199707,121.0939407,1
837.2949829,837.2949829,-691.4073486,761.7199707,121.0939407,1
838.9400024,838.9400024,-695.3135986,761.7199707,125.0001984,1
840.5849609,832.3600464,-695.3135986,765.6262207,125.0001984,1
837.2949829,829.0700684,-691.4073486,761.7199707,121.0939407,1
843.874939,832.3600464,-691.4073486,757.8136597,121.0939407,1
837.2949829,837.2949829,-691.4073486,757.8136597,121.0939407,1
842.2299194,838.9400024,-695.3135986,765.6262207,121.0939407,1
837.2949829,837.2949829,-695.3135986,765.6262207,121.0939407,1
838.9400024,834.0050049,-691.4073486,753.9074097,121.0939407,1
842.2299194,837.2949829,-695.3135986,761.7199707,121.0939407,1
842.2299194,835.6500244,-695.3135986,761.7199707,121.0939407,1
842.2299194,835.6500244,-695.3135986,757.8136597,121.0939407,1
842.2299194,835.6500244,-691.4073486,757.8136597,121.0939407,1
842.2299194,832.3600464,-691.4073486,757.8136597,121.0939407,1
842.2299194,824.1351318,-691.4073486,757.8136597,121.0939407,1
842.2299194,824.1351318,-691.4073486,761.7199707,121.0939407,1
845.5198975,838.9400024,-691.4073486,761.7199707,121.0939407,1
840.5849609,835.6500244,-695.3135986,761.7199707,121.0939407,1
842.2299194,845.5198975,-695.3135986,761.7199707,121.0939407,1
842.2299194,832.3600464,-691.4073486,761.7199707,121.0939407,1
842.2299194,840.5849609,-691.4073486,761.7199707,121.0939407,1
848.8098755,835.6500244,-691.4073486,757.8136597,121.0939407,1
842.2299194,834.0050049,-695.3135986,761.7199707,125.0001984,1
837.2949829,834.0050049,-695.3135986,761.7199707,121.0939407,1
837.2949829,834.0050049,-695.3135986,769.5324707,117.1876831,1
845.5198975,835.6500244,-691.4073486,753.9074097,121.0939407,1
847.164856,838.9400024,-691.4073486,765.6262207,121.0939407,1
840.5849609,837.2949829,-695.3135986,765.6262207,125.0001984,1
838.9400024,827.4251099,-691.4073486,761.7199707,125.0001984,1
837.2949829,829.0700684,-691.4073486,761.7199707,125.0001984,1
842.2299194,825.7801514,-695.3135986,761.7199707,121.0939407,1
842.2299194,827.4251099,-691.4073486,761.7199707,125.0001984,1
837.2949829,837.2949829,-691.4073486,761.7199707,125.0001984,1
842.2299194,829.0700684,-695.3135986,761.7199707,121.0939407,1
834.0050049,876.7745361,-691.4073486,761.7199707,125.0001984,1
838.9400024,881.7094727,-691.4073486,761.7199707,125.0001984,1
843.874939,855.3897705,-691.4073486,761.7199707,121.0939407,1
843.874939,855.3897705,-695.3135986,761.7199707,125.0001984,1
843.874939,855.3897705,-691.4073486,757.8136597,125.0001984,1
837.2949829,853.744812,-691.4073486,757.8136597,125.0001984,1
843.874939,850.454834,-691.4073486,757.8136597,125.0001984,1
840.5849609,843.874939,-699.2198486,757.8136597,125.0001984,1
848.8098755,840.5849609,-695.3135986,757.8136597,128.9064484,1
845.5198975,845.5198975,-695.3135986,761.7199707,132.8127136,1
843.874939,835.6500244,-695.3135986,757.8136597,128.9064484,1
845.5198975,840.5849609,-695.3135986,746.0949097,132.8127136,1
845.5198975,840.5849609,-695.3135986,773.4387207,128.9064484,1
845.5198975,830.7150879,-691.4073486,753.9074097,128.9064484,1
843.874939,848.8098755,-691.4073486,761.7199707,136.7189636,1
843.874939,835.6500244,-691.4073486,761.7199707,136.7189636,1
847.164856,843.874939,-695.3135986,753.9074097,128.9064484,1
842.2299194,834.0050049,-691.4073486,761.7199707,128.9064484,1
842.2299194,834.0050049,-695.3135986,761.7199707,128.9064484,1
842.2299194,834.0050049,-695.3135986,753.9074097,128.9064484,1
840.5849609,838.9400024,-695.3135986,753.9074097,128.9064484,1
845.5198975,840.5849609,-691.4073486,757.8136597,132.8127136,1
837.2949829,840.5849609,-695.3135986,757.8136597,132.8127136,1
838.9400024,838.9400024,-695.3135986,761.7199707,128.9064484,1
843.874939,837.2949829,-695.3135986,757.8136597,132.8127136,1
840.5849609,842.2299194,-695.3135986,757.8136597,132.8127136,1
845.5198975,840.5849609,-695.3135986,757.8136597,128.9064484,1
843.874939,838.9400024,-695.3135986,757.8136597,132.8127136,1
850.454834,834.0050049,-691.4073486,753.9074097,128.9064484,1
845.5198975,838.9400024,-691.4073486,753.9074097,128.9064484,1
842.2299194,832.3600464,-691.4073486,753.9074097,128.9064484,1
845.5198975,842.2299194,-695.3135986,757.8136597,132.8127136,1
847.164856,832.3600464,-695.3135986,757.8136597,132.8127136,1
847.164856,832.3600464,-691.4073486,753.9074097,128.9064484,1
838.9400024,843.874939,-691.4073486,753.9074097,128.9064484,1
842.2299194,837.2949829,-695.3135986,761.7199707,132.8127136,1
840.5849609,834.0050049,-691.4073486,753.9074097,128.9064484,1
838.9400024,837.2949829,-695.3135986,757.8136597,132.8127136,1
842.2299194,842.2299194,-695.3135986,757.8136597,132.8127136,1
835.6500244,838.9400024,-695.3135986,761.7199707,132.8127136,1
837.2949829,840.5849609,-695.3135986,761.7199707,132.8127136,1
842.2299194,834.0050049,-695.3135986,757.8136597,132.8127136,1
838.9400024,834.0050049,-695.3135986,757.8136597,132.8127136,1
840.5849609,830.7150879,-695.3135986,757.8136597,132.8127136,1
840.5849609,840.5849609,-695.3135986,757.8136597,132.8127136,1
840.5849609,840.5849609,-691.4073486,757.8136597,132.8127136,1
842.2299194,847.164856,-691.4073486,757.8136597,132.8127136,1
838.9400024,845.5198975,-695.3135986,761.7199707,132.8127136,1
843.874939,845.5198975,-695.3135986,757.8136597,128.9064484,1
843.874939,838.9400024,-695.3135986,757.8136597,128.9064484,1
840.5849609,840.5849609,-695.3135986,757.8136597,128.9064484,1
838.9400024,847.164856,-695.3135986,761.7199707,136.7189636,1
845.5198975,837.2949829,-695.3135986,757.8136597,136.7189636,1
845.5198975,840.5849609,-695.3135986,757.8136597,136.7189636,1
840.5849609,835.6500244,-691.4073486,757.8136597,132.8127136,1
840.5849609,835.6500244,-695.3135986,753.9074097,132.8127136,1
840.5849609,835.6500244,-695.3135986,761.7199707,132.8127136,1
845.5198975,838.9400024,-695.3135986,761.7199707,132.8127136,1
840.5849609,843.874939,-695.3135986,757.8136597,136.7189636,1
845.5198975,842.2299194,-695.3135986,765.6262207,136.7189636,1
838.9400024,835.6500244,-695.3135986,757.8136597,136.7189636,1
842.2299194,842.2299194,-695.3135986,757.8136597,136.7189636,1
845.5198975,847.164856,-695.3135986,753.9074097,132.8127136,1
840.5849609,843.874939,-695.3135986,753.9074097,132.8127136,1
842.2299194,840.5849609,-695.3135986,757.8136597,136.7189636,1
840.5849609,838.9400024,-695.3135986,757.8136597,136.7189636,1
845.5198975,848.8098755,-695.3135986,761.7199707,132.8127136,1
840.5849609,848.8098755,-691.4073486,761.7199707,136.7189636,1
847.164856,842.2299194,-695.3135986,761.7199707,132.8127136,1
840.5849609,840.5849609,-687.5010986,750.0011597,136.7189636,1
840.5849609,840.5849609,-691.4073486,753.9074097,136.7189636,1
842.2299194,843.874939,-691.4073486,757.8136597,136.7189636,1
838.9400024,840.5849609,-691.4073486,757.8136597,136.7189636,1
847.164856,842.2299194,-695.3135986,757.8136597,132.8127136,1
847.164856,842.2299194,-691.4073486,757.8136597,132.8127136,1
847.164856,842.2299194,-691.4073486,757.8136597,136.7189636,1
845.5198975,840.5849609,-691.4073486,757.8136597,136.7189636,1
845.5198975,850.454834,-691.4073486,757.8136597,136.7189636,1
845.5198975,845.5198975,-691.4073486,757.8136597,136.7189636,1
848.8098755,840.5849609,-691.4073486,757.8136597,136.7189636,1
850.454834,845.5198975,-691.4073486,757.8136597,136.7189636,1
843.874939,838.9400024,-691.4073486,757.8136597,136.7189636,1
842.2299194,847.164856,-695.3135986,757.8136597,140.6252136,1
843.874939,845.5198975,-695.3135986,757.8136597,140.6252136,1
847.164856,838.9400024,-695.3135986,757.8136597,140.6252136,1
848.8098755,845.5198975,-695.3135986,761.7199707,140.6252136,1
850.454834,845.5198975,-687.5010986,753.9074097,140.6252136,1
845.5198975,848.8098755,-687.5010986,753.9074097,140.6252136,1
843.874939,850.454834,-695.3135986,753.9074097,140.6252136,1
842.2299194,845.5198975,-695.3135986,753.9074097,140.6252136,1
848.8098755,852.0997925,-695.3135986,765.6262207,136.7189636,1
848.8098755,842.2299194,-695.3135986,761.7199707,136.7189636,1
852.0997925,843.874939,-691.4073486,757.8136597,140.6252136,1
855.3897705,845.5198975,-691.4073486,757.8136597,140.6252136,1
853.744812,845.5198975,-691.4073486,757.8136597,140.6252136,1
853.744812,845.5198975,-695.3135986,757.8136597,140.6252136,1
850.454834,835.6500244,-699.2198486,757.8136597,136.7189636,1
853.744812,827.4251099,-695.3135986,757.8136597,136.7189636,1
853.744812,827.4251099,-691.4073486,757.8136597,132.8127136,1
855.3897705,837.2949829,-691.4073486,757.8136597,132.8127136,1
852.0997925,834.0050049,-695.3135986,757.8136597,132.8127136,1
853.744812,847.164856,-695.3135986,761.7199707,136.7189636,1
858.6797485,837.2949829,-695.3135986,757.8136597,132.8127136,1
843.874939,843.874939,-695.3135986,757.8136597,128.9064484,1
852.0997925,847.164856,-691.4073486,757.8136597,128.9064484,1
848.8098755,843.874939,-691.4073486,757.8136597,125.0001984,1
848.8098755,843.874939,-687.5010986,753.9074097,128.9064484,1
845.5198975,850.454834,-687.5010986,761.7199707,128.9064484,1
848.8098755,850.454834,-687.5010986,761.7199707,128.9064484,1
848.8098755,848.8098755,-691.4073486,757.8136597,125.0001984,1
847.164856,845.5198975,-691.4073486,757.8136597,128.9064484,1
843.874939,850.454834,-695.3135986,761.7199707,125.0001984,1
843.874939,850.454834,-695.3135986,757.8136597,128.9064484,1
845.5198975,845.5198975,-695.3135986,757.8136597,128.9064484,1
847.164856,843.874939,-691.4073486,761.7199707,128.9064484,1
843.874939,840.5849609,-691.4073486,757.8136597,128.9064484,1
843.874939,840.5849609,-691.4073486,761.7199707,128.9064484,1
848.8098755,850.454834,-691.4073486,761.7199707,128.9064484,1
850.454834,842.2299194,-691.4073486,761.7199707,128.9064484,1
847.164856,847.164856,-695.3135986,761.7199707,128.9064484,1
848.8098755,843.874939,-687.5010986,757.8136597,132.8127136,1
845.5198975,843.874939,-687.5010986,757.8136597,132.8127136,1
845.5198975,835.6500244,-695.3135986,757.8136597,128.9064484,1
847.164856,843.874939,-695.3135986,757.8136597,128.9064484,1
848.8098755,847.164856,-691.4073486,757.8136597,132.8127136,1
848.8098755,843.874939,-691.4073486,761.7199707,128.9064484,1
842.2299194,840.5849609,-695.3135986,761.7199707,128.9064484,1
837.2949829,843.874939,-691.4073486,757.8136597,132.8127136,1
845.5198975,843.874939,-691.4073486,757.8136597,132.8127136,1
840.5849609,845.5198975,-695.3135986,761.7199707,128.9064484,1
840.5849609,845.5198975,-691.4073486,761.7199707,136.7189636,1
838.9400024,847.164856,-691.4073486,761.7199707,136.7189636,1
842.2299194,845.5198975,-691.4073486,761.7199707,136.7189636,1
843.874939,843.874939,-695.3135986,765.6262207,128.9064484,1
842.2299194,840.5849609,-695.3135986,765.6262207,128.9064484,1
843.874939,847.164856,-707.0323486,746.0949097,125.0001984,1
850.454834,838.9400024,-695.3135986,746.0949097,125.0001984,1
850.454834,838.9400024,-707.0323486,757.8136597,128.9064484,1
855.3897705,838.9400024,-707.0323486,757.8136597,128.9064484,1
873.4845581,840.5849609,-687.5010986,761.7199707,128.9064484,1
870.1945801,837.2949829,-687.5010986,761.7199707,128.9064484,1
860.324707,843.874939,-695.3135986,761.7199707,113.2814255,1
853.744812,838.9400024,-687.5010986,761.7199707,109.3751678,1
843.874939,842.2299194,-687.5010986,761.7199707,109.3751678,1
840.5849609,845.5198975,-675.7822876,761.7199707,97.65640259,1
832.3600464,852.0997925,-675.7822876,761.7199707,97.65640259,1
835.6500244,850.454834,-683.5948486,765.6262207,101.5626602,1
835.6500244,855.3897705,-699.2198486,757.8136597,136.7189636,1
835.6500244,845.5198975,-699.2198486,757.8136597,136.7189636,1
837.2949829,848.8098755,-699.2198486,757.8136597,136.7189636,1
837.2949829,853.744812,-699.2198486,761.7199707,125.0001984,1
837.2949829,853.744812,-695.3135986,761.7199707,121.0939407,1
834.0050049,847.164856,-695.3135986,761.7199707,121.0939407,1
840.5849609,847.164856,-683.5948486,761.7199707,117.1876831,1
840.5849609,847.164856,-679.6885376,757.8136597,117.1876831,1
837.2949829,845.5198975,-679.6885376,757.8136597,117.1876831,1
840.5849609,847.164856,-695.3135986,765.6262207,117.1876831,1
837.2949829,843.874939,-699.2198486,773.4387207,121.0939407,1
838.9400024,840.5849609,-687.5010986,761.7199707,125.0001984,1
840.5849609,842.2299194,-687.5010986,761.7199707,125.0001984,1
842.2299194,843.874939,-691.4073486,753.9074097,125.0001984,1
843.874939,838.9400024,-695.3135986,757.8136597,125.0001984,1
842.2299194,837.2949829,-691.4073486,761.7199707,125.0001984,1
840.5849609,845.5198975,-691.4073486,765.6262207,121.0939407,1
838.9400024,850.454834,-691.4073486,765.6262207,121.0939407,1
842.2299194,845.5198975,-691.4073486,757.8136597,125.0001984,1
843.874939,843.874939,-695.3135986,757.8136597,125.0001984,1
840.5849609,843.874939,-691.4073486,761.7199707,125.0001984,1
838.9400024,840.5849609,-695.3135986,761.7199707,125.0001984,1
847.164856,843.874939,-691.4073486,761.7199707,125.0001984,1
838.9400024,847.164856,-691.4073486,761.7199707,125.0001984,1
842.2299194,847.164856,-695.3135986,765.6262207,121.0939407,1
842.2299194,847.164856,-691.4073486,753.9074097,125.0001984,1
845.5198975,845.5198975,-691.4073486,761.7199707,128.9064484,1
840.5849609,855.3897705,-691.4073486,757.8136597,128.9064484,1
843.874939,852.0997925,-695.3135986,761.7199707,128.9064484,1
845.5198975,838.9400024,-691.4073486,757.8136597,125.0001984,1
847.164856,840.5849609,-691.4073486,761.7199707,128.9064484,1
847.164856,840.5849609,-695.3135986,761.7199707,128.9064484,1
845.5198975,843.874939,-691.4073486,757.8136597,128.9064484,1
848.8098755,852.0997925,-691.4073486,757.8136597,128.9064484,1
850.454834,840.5849609,-691.4073486,757.8136597,125.0001984,1
845.5198975,845.5198975,-691.4073486,757.8136597,125.0001984,1
845.5198975,852.0997925,-691.4073486,757.8136597,125.0001984,1
850.454834,848.8098755,-691.4073486,761.7199707,128.9064484,1
842.2299194,843.874939,-695.3135986,761.7199707,125.0001984,1
840.5849609,850.454834,-695.3135986,761.7199707,125.0001984,1
842.2299194,845.5198975,-691.4073486,761.7199707,128.9064484,1
843.874939,843.874939,-695.3135986,761.7199707,128.9064484,1
845.5198975,848.8098755,-695.3135986,761.7199707,128.9064484,1
845.5198975,848.8098755,-691.4073486,761.7199707,128.9064484,1
845.5198975,848.8098755,-691.4073486,757.8136597,125.0001984,1
843.874939,847.164856,-695.3135986,761.7199707,128.9064484,1
843.874939,847.164856,-691.4073486,757.8136597,128.9064484,1
840.5849609,840.5849609,-691.4073486,761.7199707,125.0001984,1
840.5849609,840.5849609,-691.4073486,757.8136597,128.9064484,1
838.9400024,842.2299194,-691.4073486,757.8136597,128.9064484,1
834.0050049,843.874939,-695.3135986,761.7199707,128.9064484,1
834.0050049,843.874939,-695.3135986,761.7199707,125.0001984,1
845.5198975,838.9400024,-695.3135986,761.7199707,121.0939407,1
843.874939,840.5849609,-695.3135986,761.7199707,121.0939407,1
840.5849609,843.874939,-691.4073486,761.7199707,128.9064484,1
843.874939,850.454834,-691.4073486,750.0011597,125.0001984,1
843.874939,847.164856,-691.4073486,750.0011597,125.0001984,1
843.874939,852.0997925,-691.4073486,750.0011597,125.0001984,1
843.874939,848.8098755,-695.3135986,761.7199707,121.0939407,1
843.874939,850.454834,-695.3135986,761.7199707,121.0939407,1
838.9400024,853.744812,-691.4073486,757.8136597,125.0001984,1
847.164856,845.5198975,-691.4073486,761.7199707,128.9064484,1
842.2299194,852.0997925,-691.4073486,757.8136597,125.0001984,1
840.5849609,845.5198975,-695.3135986,757.8136597,125.0001984,1
843.874939,845.5198975,-691.4073486,761.7199707,125.0001984,1
843.874939,845.5198975,-691.4073486,765.6262207,125.0001984,1
843.874939,847.164856,-691.4073486,765.6262207,125.0001984,1
840.5849609,852.0997925,-691.4073486,757.8136597,125.0001984,1
843.874939,847.164856,-691.4073486,757.8136597,125.0001984,1
837.2949829,855.3897705,-695.3135986,761.7199707,125.0001984,1
840.5849609,848.8098755,-695.3135986,761.7199707,128.9064484,1
840.5849609,848.8098755,-695.3135986,761.7199707,125.0001984,1
840.5849609,858.6797485,-695.3135986,761.7199707,125.0001984,1
845.5198975,858.6797485,-691.4073486,757.8136597,125.0001984,1
848.8098755,848.8098755,-691.4073486,757.8136597,128.9064484,1
850.454834,848.8098755,-695.3135986,761.7199707,128.9064484,1
847.164856,848.8098755,-695.3135986,761.7199707,128.9064484,1
847.164856,847.164856,-695.3135986,761.7199707,125.0001984,1
847.164856,847.164856,-687.5010986,750.0011597,128.9064484,1
842.2299194,850.454834,-687.5010986,761.7199707,128.9064484,1
842.2299194,847.164856,-695.3135986,761.7199707,128.9064484,1
843.874939,852.0997925,-691.4073486,761.7199707,128.9064484,1
842.2299194,850.454834,-691.4073486,761.7199707,128.9064484,1
843.874939,852.0997925,-695.3135986,761.7199707,125.0001984,1
843.874939,852.0997925,-691.4073486,761.7199707,125.0001984,1
845.5198975,850.454834,-691.4073486,761.7199707,125.0001984,1
845.5198975,850.454834,-695.3135986,761.7199707,125.0001984,1
845.5198975,850.454834,-695.3135986,757.8136597,125.0001984,1
843.874939,850.454834,-691.4073486,757.8136597,128.9064484,1
848.8098755,853.744812,-695.3135986,761.7199707,128.9064484,1
852.0997925,850.454834,-691.4073486,761.7199707,128.9064484,1
840.5849609,852.0997925,-691.4073486,761.7199707,128.9064484,1
842.2299194,847.164856,-691.4073486,761.7199707,128.9064484,1
840.5849609,850.454834,-691.4073486,757.8136597,125.0001984,1
843.874939,855.3897705,-691.4073486,761.7199707,125.0001984,1
840.5849609,847.164856,-691.4073486,761.7199707,128.9064484,1
842.2299194,848.8098755,-687.5010986,750.0011597,128.9064484,1
845.5198975,847.164856,-687.5010986,750.0011597,128.9064484,1
845.5198975,855.3897705,-687.5010986,750.0011597,128.9064484,1
838.9400024,842.2299194,-695.3135986,761.7199707,128.9064484,1
847.164856,850.454834,-695.3135986,761.7199707,128.9064484,1
847.164856,850.454834,-691.4073486,757.8136597,128.9064484,1
852.0997925,843.874939,-691.4073486,757.8136597,128.9064484,1
842.2299194,847.164856,-695.3135986,761.7199707,125.0001984,1
848.8098755,855.3897705,-691.4073486,761.7199707,128.9064484,1
845.5198975,847.164856,-691.4073486,761.7199707,128.9064484,1
855.3897705,848.8098755,-777.3449707,687.5010986,82.0313797,1
835.6500244,840.5849609,-777.3449707,687.5010986,82.0313797,1
847.164856,852.0997925,-773.4387207,683.5948486,82.0313797,1
875.1295166,870.1945801,-777.3449707,683.5948486,82.0313797,1
825.7801514,842.2299194,-777.3449707,679.6885376,85.93763733,1
848.8098755,848.8098755,-781.2512207,687.5010986,85.93763733,1
871.8395996,868.5496216,-781.2512207,691.4073486,82.0313797,1
871.8395996,868.5496216,-773.4387207,679.6885376,82.0313797,1
860.324707,863.6146851,-769.5324707,683.5948486,85.93763733,1
850.454834,848.8098755,-769.5324707,683.5948486,85.93763733,1
871.8395996,858.6797485,-777.3449707,683.5948486,85.93763733,1
847.164856,858.6797485,-777.3449707,683.5948486,85.93763733,1
857.034729,866.9046631,-777.3449707,683.5948486,85.93763733,1
857.034729,866.9046631,-777.3449707,683.5948486,82.0313797,1
875.1295166,875.1295166,-777.3449707,683.5948486,82.0313797,1
850.454834,848.8098755,-777.3449707,683.5948486,85.93763733,1
850.454834,848.8098755,-773.4387207,683.5948486,85.93763733,1
850.454834,848.8098755,-777.3449707,687.5010986,82.0313797,1
843.874939,840.5849609,-777.3449707,687.5010986,82.0313797,1
825.7801514,838.9400024,-777.3449707,683.5948486,85.93763733,1
860.324707,863.6146851,-777.3449707,683.5948486,85.93763733,1
857.034729,863.6146851,-777.3449707,683.5948486,85.93763733,1
863.6146851,865.2596436,-777.3449707,683.5948486,85.93763733,1
848.8098755,866.9046631,-769.5324707,679.6885376,85.93763733,1
847.164856,871.8395996,-777.3449707,683.5948486,85.93763733,1
827.4251099,858.6797485,-777.3449707,683.5948486,85.93763733,1
853.744812,858.6797485,-773.4387207,683.5948486,85.93763733,1
863.6146851,868.5496216,-773.4387207,683.5948486,85.93763733,1
835.6500244,852.0997925,-773.4387207,687.5010986,85.93763733,1
863.6146851,865.2596436,-773.4387207,687.5010986,82.0313797,1
835.6500244,855.3897705,-777.3449707,687.5010986,85.93763733,1
842.2299194,845.5198975,-777.3449707,687.5010986,85.93763733,1
843.874939,845.5198975,-777.3449707,687.5010986,85.93763733,1
843.874939,845.5198975,-777.3449707,683.5948486,85.93763733,1
837.2949829,850.454834,-777.3449707,687.5010986,85.93763733,1
834.0050049,843.874939,-777.3449707,683.5948486,85.93763733,1
837.2949829,843.874939,-773.4387207,683.5948486,85.93763733,1
832.3600464,848.8098755,-773.4387207,687.5010986,82.0313797,1
853.744812,858.6797485,-773.4387207,687.5010986,82.0313797,1
845.5198975,845.5198975,-781.2512207,687.5010986,82.0313797,1
845.5198975,845.5198975,-773.4387207,679.6885376,85.93763733,1
848.8098755,855.3897705,-773.4387207,679.6885376,85.93763733,1
827.4251099,840.5849609,-777.3449707,683.5948486,85.93763733,1
819.2001953,835.6500244,-777.3449707,683.5948486,85.93763733,1
845.5198975,850.454834,-777.3449707,683.5948486,85.93763733,1
845.5198975,848.8098755,-777.3449707,687.5010986,85.93763733,1
834.0050049,850.454834,-777.3449707,687.5010986,85.93763733,1
834.0050049,850.454834,-777.3449707,687.5010986,89.84388733,1
865.2596436,865.2596436,-777.3449707,687.5010986,85.93763733,1
858.6797485,848.8098755,-777.3449707,687.5010986,85.93763733,1
847.164856,845.5198975,-777.3449707,687.5010986,85.93763733,1
855.3897705,866.9046631,-777.3449707,687.5010986,89.84388733,1
843.874939,843.874939,-773.4387207,687.5010986,85.93763733,1
848.8098755,860.324707,-777.3449707,687.5010986,89.84388733,1
848.8098755,860.324707,-777.3449707,691.4073486,85.93763733,1
848.8098755,855.3897705,-769.5324707,687.5010986,89.84388733,1
848.8098755,855.3897705,-777.3449707,687.5010986,89.84388733,1
848.8098755,855.3897705,-777.3449707,687.5010986,85.93763733,1
855.3897705,857.034729,-777.3449707,687.5010986,85.93763733,1
850.454834,847.164856,-773.4387207,687.5010986,89.84388733,1
853.744812,848.8098755,-773.4387207,687.5010986,89.84388733,1
853.744812,860.324707,-773.4387207,683.5948486,85.93763733,1
840.5849609,850.454834,-773.4387207,687.5010986,85.93763733,1
830.7150879,845.5198975,-773.4387207,687.5010986,89.84388733,1
852.0997925,858.6797485,-773.4387207,687.5010986,85.93763733,1
819.2001953,840.5849609,-773.4387207,687.5010986,85.93763733,1
838.9400024,855.3897705,-773.4387207,687.5010986,85.93763733,1
838.9400024,843.874939,-777.3449707,687.5010986,89.84388733,1
834.0050049,852.0997925,-773.4387207,687.5010986,85.93763733,1
857.034729,868.5496216,-773.4387207,687.5010986,85.93763733,1
835.6500244,843.874939,-777.3449707,691.4073486,85.93763733,1
838.9400024,853.744812,-777.3449707,691.4073486,85.93763733,1
842.2299194,863.6146851,-773.4387207,679.6885376,85.93763733,1
850.454834,842.2299194,-777.3449707,683.5948486,85.93763733,1
825.7801514,834.0050049,-773.4387207,687.5010986,85.93763733,1
860.324707,865.2596436,-777.3449707,691.4073486,85.93763733,1
847.164856,853.744812,-773.4387207,691.4073486,85.93763733,1
861.9697266,863.6146851,-777.3449707,687.5010986,85.93763733,1
850.454834,858.6797485,-773.4387207,683.5948486,85.93763733,1
850.454834,858.6797485,-773.4387207,687.5010986,85.93763733,1
858.6797485,866.9046631,-777.3449707,691.4073486,85.93763733,1
860.324707,871.8395996,-777.3449707,691.4073486,85.93763733,1
835.6500244,847.164856,-769.5324707,683.5948486,89.84388733,1
861.9697266,870.1945801,-777.3449707,691.4073486,85.93763733,1
861.9697266,870.1945801,-773.4387207,687.5010986,85.93763733,1
848.8098755,850.454834,-777.3449707,687.5010986,85.93763733,1
847.164856,868.5496216,-777.3449707,687.5010986,85.93763733,1
840.5849609,853.744812,-777.3449707,687.5010986,85.93763733,1
853.744812,857.034729,-777.3449707,687.5010986,85.93763733,1
845.5198975,861.9697266,-773.4387207,687.5010986,85.93763733,1
830.7150879,845.5198975,-777.3449707,691.4073486,89.84388733,1
843.874939,860.324707,-777.3449707,691.4073486,89.84388733,1
843.874939,860.324707,-777.3449707,687.5010986,89.84388733,1
843.874939,857.034729,-773.4387207,683.5948486,85.93763733,1
842.2299194,848.8098755,-773.4387207,687.5010986,85.93763733,1
830.7150879,843.874939,-773.4387207,687.5010986,85.93763733,1
848.8098755,855.3897705,-769.5324707,683.5948486,89.84388733,1
845.5198975,863.6146851,-773.4387207,687.5010986,85.93763733,1
868.5496216,878.4194946,-773.4387207,687.5010986,85.93763733,1
827.4251099,845.5198975,-777.3449707,687.5010986,85.93763733,1
866.9046631,875.1295166,-773.4387207,687.5010986,85.93763733,1
848.8098755,865.2596436,-777.3449707,687.5010986,85.93763733,1
834.0050049,848.8098755,-777.3449707,687.5010986,85.93763733,1
837.2949829,853.744812,-773.4387207,687.5010986,85.93763733,1
829.0700684,842.2299194,-777.3449707,683.5948486,89.84388733,1
830.7150879,842.2299194,-769.5324707,679.6885376,85.93763733,1
824.1351318,845.5198975,-769.5324707,687.5010986,85.93763733,1
845.5198975,848.8098755,-777.3449707,691.4073486,89.84388733,1
840.5849609,852.0997925,-773.4387207,687.5010986,85.93763733,1
847.164856,855.3897705,-773.4387207,687.5010986,89.84388733,1
832.3600464,848.8098755,-777.3449707,687.5010986,85.93763733,1
868.5496216,873.4845581,-773.4387207,687.5010986,85.93763733,1
832.3600464,850.454834,-773.4387207,691.4073486,85.93763733,1
860.324707,837.2949829,-773.4387207,687.5010986,85.93763733,1
837.2949829,837.2949829,-773.4387207,687.5010986,85.93763733,1
858.6797485,863.6146851,-773.4387207,687.5010986,85.93763733,1
865.2596436,865.2596436,-773.4387207,687.5010986,89.84388733,1
855.3897705,857.034729,-777.3449707,687.5010986,89.84388733,1
827.4251099,840.5849609,-773.4387207,687.5010986,85.93763733,1
868.5496216,860.324707,-773.4387207,687.5010986,89.84388733,1
834.0050049,840.5849609,-777.3449707,691.4073486,89.84388733,1
837.2949829,840.5849609,-777.3449707,687.5010986,89.84388733,1
837.2949829,840.5849609,-777.3449707,687.5010986,85.93763733,1
853.744812,861.9697266,-777.3449707,687.5010986,85.93763733,1
835.6500244,850.454834,-769.5324707,691.4073486,89.84388733,1
834.0050049,838.9400024,-773.4387207,687.5010986,85.93763733,1
843.874939,852.0997925,-773.4387207,691.4073486,85.93763733,1
858.6797485,853.744812,-773.4387207,687.5010986,85.93763733,1
848.8098755,850.454834,-777.3449707,687.5010986,89.84388733,1
825.7801514,843.874939,-773.4387207,687.5010986,85.93763733,1
824.1351318,837.2949829,-773.4387207,687.5010986,85.93763733,1
848.8098755,858.6797485,-773.4387207,683.5948486,85.93763733,1
825.7801514,837.2949829,-777.3449707,691.4073486,89.84388733,1
858.6797485,866.9046631,-777.3449707,691.4073486,89.84388733,1
860.324707,861.9697266,-777.3449707,687.5010986,85.93763733,1
845.5198975,855.3897705,-773.4387207,687.5010986,85.93763733,1
847.164856,857.034729,-773.4387207,687.5010986,85.93763733,1
847.164856,857.034729,-773.4387207,691.4073486,85.93763733,1
858.6797485,863.6146851,-773.4387207,691.4073486,85.93763733,1
838.9400024,855.3897705,-773.4387207,691.4073486,85.93763733,1
852.0997925,858.6797485,-773.4387207,687.5010986,89.84388733,1
838.9400024,843.874939,-773.4387207,687.5010986,85.93763733,1
863.6146851,858.6797485,-773.4387207,687.5010986,85.93763733,1
858.6797485,855.3897705,-773.4387207,687.5010986,85.93763733,1
852.0997925,860.324707,-773.4387207,687.5010986,89.84388733,1
860.324707,858.6797485,-773.4387207,687.5010986,82.0313797,1
860.324707,858.6797485,-769.5324707,679.6885376,85.93763733,1
847.164856,852.0997925,-769.5324707,679.6885376,85.93763733,1
855.3897705,857.034729,-773.4387207,687.5010986,85.93763733,1
843.874939,845.5198975,-773.4387207,691.4073486,85.93763733,1
830.7150879,845.5198975,-773.4387207,687.5010986,82.0313797,1
842.2299194,858.6797485,-773.4387207,687.5010986,85.93763733,1
853.744812,843.874939,-773.4387207,687.5010986,85.93763733,1
843.874939,850.454834,-773.4387207,691.4073486,85.93763733,1
866.9046631,863.6146851,-773.4387207,687.5010986,85.93763733,1
863.6146851,863.6146851,-773.4387207,683.5948486,85.93763733,1
863.6146851,863.6146851,-773.4387207,691.4073486,85.93763733,1
865.2596436,860.324707,-773.4387207,691.4073486,85.93763733,1
850.454834,855.3897705,-769.5324707,687.5010986,85.93763733,1
853.744812,853.744812,-777.3449707,691.4073486,85.93763733,1
842.2299194,842.2299194,-777.3449707,683.5948486,85.93763733,1
861.9697266,860.324707,-773.4387207,687.5010986,82.0313797,1
853.744812,852.0997925,-773.4387207,687.5010986,82.0313797,1
850.454834,852.0997925,-777.3449707,687.5010986,85.93763733,1
837.2949829,857.034729,-773.4387207,687.5010986,85.93763733,1
852.0997925,858.6797485,-773.4387207,683.5948486,85.93763733,1
842.2299194,843.874939,-773.4387207,683.5948486,85.93763733,1
858.6797485,855.3897705,-773.4387207,683.5948486,85.93763733,1
858.6797485,865.2596436,-777.3449707,687.5010986,85.93763733,1
860.324707,865.2596436,-777.3449707,683.5948486,85.93763733,1
838.9400024,840.5849609,-777.3449707,683.5948486,85.93763733,1
852.0997925,866.9046631,-777.3449707,687.5010986,85.93763733,1
832.3600464,845.5198975,-777.3449707,687.5010986,85.93763733,1
838.9400024,850.454834,-777.3449707,687.5010986,85.93763733,1
866.9046631,860.324707,-773.4387207,687.5010986,85.93763733,1
871.8395996,857.034729,-773.4387207,687.5010986,85.93763733,1
868.5496216,863.6146851,-777.3449707,687.5010986,85.93763733,1
834.0050049,843.874939,-773.4387207,687.5010986,85.93763733,1
843.874939,848.8098755,-773.4387207,687.5010986,85.93763733,1
845.5198975,840.5849609,-777.3449707,687.5010986,89.84388733,1
840.5849609,847.164856,-773.4387207,683.5948486,85.93763733,1
840.5849609,847.164856,-773.4387207,683.5948486,89.84388733,1
866.9046631,860.324707,-773.4387207,687.5010986,89.84388733,1
853.744812,860.324707,-777.3449707,687.5010986,89.84388733,1
825.7801514,835.6500244,-777.3449707,687.5010986,89.84388733,1
840.5849609,843.874939,-777.3449707,687.5010986,85.93763733,1
845.5198975,853.744812,-773.4387207,687.5010986,89.84388733,1
850.454834,848.8098755,-773.4387207,687.5010986,85.93763733,1
860.324707,865.2596436,-777.3449707,687.5010986,85.93763733,1
861.9697266,858.6797485,-773.4387207,683.5948486,85.93763733,1
861.9697266,858.6797485,-777.3449707,687.5010986,85.93763733,1
861.9697266,858.6797485,-773.4387207,687.5010986,89.84388733,1
824.1351318,840.5849609,-773.4387207,687.5010986,89.84388733,1
835.6500244,850.454834,-773.4387207,683.5948486,85.93763733,1
843.874939,860.324707,-773.4387207,687.5010986,85.93763733,1
845.5198975,848.8098755,-773.4387207,687.5010986,85.93763733,1
852.0997925,861.9697266,-777.3449707,687.5010986,89.84388733,1
840.5849609,842.2299194,-773.4387207,687.5010986,85.93763733,1
863.6146851,858.6797485,-773.4387207,687.5010986,89.84388733,1
853.744812,850.454834,-773.4387207,683.5948486,89.84388733,1
860.324707,852.0997925,-777.3449707,691.4073486,85.93763733,1
860.324707,852.0997925,-777.3449707,687.5010986,85.93763733,1
838.9400024,845.5198975,-777.3449707,691.4073486,85.93763733,1
838.9400024,845.5198975,-777.3449707,683.5948486,89.84388733,1
857.034729,861.9697266,-773.4387207,687.5010986,89.84388733,1
858.6797485,852.0997925,-773.4387207,687.5010986,85.93763733,1
835.6500244,834.0050049,-773.4387207,687.5010986,85.93763733,1
855.3897705,848.8098755,-777.3449707,687.5010986,89.84388733,1
855.3897705,848.8098755,-777.3449707,687.5010986,85.93763733,1
832.3600464,834.0050049,-777.3449707,687.5010986,85.93763733,1
855.3897705,860.324707,-777.3449707,691.4073486,89.84388733,1
837.2949829,855.3897705,-773.4387207,687.5010986,89.84388733,1
858.6797485,868.5496216,-777.3449707,687.5010986,89.84388733,1
858.6797485,868.5496216,-777.3449707,687.5010986,85.93763733,1
825.7801514,838.9400024,-773.4387207,687.5010986,89.84388733,1
825.7801514,838.9400024,-773.4387207,687.5010986,85.93763733,1
855.3897705,860.324707,-777.3449707,687.5010986,85.93763733,1
837.2949829,858.6797485,-773.4387207,687.5010986,89.84388733,1
838.9400024,857.034729,-777.3449707,687.5010986,89.84388733,1
829.0700684,838.9400024,-777.3449707,687.5010986,89.84388733,1
848.8098755,853.744812,-777.3449707,687.5010986,89.84388733,1
819.2001953,834.0050049,-777.3449707,687.5010986,89.84388733,1
830.7150879,840.5849609,-773.4387207,687.5010986,85.93763733,1
830.7150879,840.5849609,-777.3449707,687.5010986,89.84388733,1
858.6797485,857.034729,-777.3449707,687.5010986,89.84388733,1
837.2949829,847.164856,-777.3449707,687.5010986,89.84388733,1
865.2596436,870.1945801,-777.3449707,687.5010986,89.84388733,1
822.4901733,840.5849609,-769.5324707,683.5948486,89.84388733,1
861.9697266,863.6146851,-777.3449707,687.5010986,89.84388733,1
865.2596436,870.1945801,-773.4387207,687.5010986,89.84388733,1
838.9400024,860.324707,-773.4387207,687.5010986,85.93763733,1
838.9400024,860.324707,-773.4387207,683.5948486,89.84388733,1
835.6500244,850.454834,-773.4387207,687.5010986,89.84388733,1
835.6500244,850.454834,-777.3449707,687.5010986,89.84388733,1
840.5849609,842.2299194,-773.4387207,687.5010986,89.84388733,1
835.6500244,843.874939,-777.3449707,687.5010986,89.84388733,1
835.6500244,840.5849609,-773.4387207,687.5010986,89.84388733,1
835.6500244,860.324707,-773.4387207,683.5948486,89.84388733,1
832.3600464,848.8098755,-773.4387207,683.5948486,85.93763733,1
842.2299194,845.5198975,-773.4387207,683.5948486,85.93763733,1
855.3897705,858.6797485,-773.4387207,691.4073486,89.84388733,1
843.874939,845.5198975,-777.3449707,683.5948486,89.84388733,1
827.4251099,847.164856,-773.4387207,687.5010986,89.84388733,1
860.324707,866.9046631,-773.4387207,687.5010986,89.84388733,1
827.4251099,840.5849609,-777.3449707,687.5010986,89.84388733,1
827.4251099,840.5849609,-773.4387207,687.5010986,89.84388733,1
848.8098755,850.454834,-773.4387207,687.5010986,89.84388733,1
830.7150879,857.034729,-773.4387207,687.5010986,89.84388733,1
857.034729,855.3897705,-777.3449707,687.5010986,89.84388733,1
861.9697266,866.9046631,-773.4387207,683.5948486,89.84388733,1
824.1351318,843.874939,-773.4387207,687.5010986,89.84388733,1
840.5849609,850.454834,-773.4387207,687.5010986,89.84388733,1
857.034729,863.6146851,-773.4387207,683.5948486,89.84388733,1
834.0050049,861.9697266,-777.3449707,683.5948486,89.84388733,1
832.3600464,847.164856,-777.3449707,683.5948486,89.84388733,1
861.9697266,861.9697266,-777.3449707,683.5948486,89.84388733,1
861.9697266,861.9697266,-777.3449707,687.5010986,89.84388733,1
838.9400024,857.034729,-773.4387207,687.5010986,85.93763733,1
853.744812,858.6797485,-773.4387207,683.5948486,89.84388733,1
832.3600464,852.0997925,-777.3449707,687.5010986,89.84388733,1
855.3897705,865.2596436,-773.4387207,687.5010986,89.84388733,1
845.5198975,858.6797485,-777.3449707,691.4073486,89.84388733,1
847.164856,857.034729,-777.3449707,691.4073486,85.93763733,1
847.164856,857.034729,-769.5324707,687.5010986,89.84388733,1
853.744812,852.0997925,-769.5324707,687.5010986,89.84388733,1
848.8098755,852.0997925,-769.5324707,687.5010986,89.84388733,1
834.0050049,840.5849609,-769.5324707,687.5010986,89.84388733,1
845.5198975,858.6797485,-773.4387207,691.4073486,85.93763733,1
830.7150879,838.9400024,-777.3449707,687.5010986,93.75014496,1
842.2299194,837.2949829,-773.4387207,687.5010986,89.84388733,1
820.8452148,829.0700684,-773.4387207,687.5010986,89.84388733,1
838.9400024,834.0050049,-773.4387207,687.5010986,89.84388733,1
852.0997925,852.0997925,-777.3449707,687.5010986,85.93763733,1
840.5849609,847.164856,-777.3449707,687.5010986,93.75014496,1
843.874939,853.744812,-777.3449707,687.5010986,93.75014496,1
857.034729,865.2596436,-777.3449707,683.5948486,89.84388733,1
858.6797485,863.6146851,-773.4387207,687.5010986,89.84388733,1
848.8098755,863.6146851,-773.4387207,687.5010986,89.84388733,1
845.5198975,857.034729,-773.4387207,687.5010986,89.84388733,1
871.8395996,866.9046631,-773.4387207,687.5010986,89.84388733,1
832.3600464,845.5198975,-773.4387207,687.5010986,89.84388733,1
860.324707,863.6146851,-773.4387207,687.5010986,89.84388733,1
848.8098755,853.744812,-773.4387207,683.5948486,89.84388733,1
824.1351318,845.5198975,-773.4387207,687.5010986,89.84388733,1
845.5198975,855.3897705,-773.4387207,687.5010986,89.84388733,1
863.6146851,857.034729,-773.4387207,687.5010986,89.84388733,1
863.6146851,857.034729,-777.3449707,687.5010986,85.93763733,1
848.8098755,845.5198975,-777.3449707,687.5010986,89.84388733,1
855.3897705,847.164856,-773.4387207,687.5010986,89.84388733,1
835.6500244,840.5849609,-773.4387207,683.5948486,89.84388733,1
853.744812,866.9046631,-773.4387207,683.5948486,89.84388733,1
837.2949829,860.324707,-773.4387207,687.5010986,89.84388733,1
863.6146851,848.8098755,-773.4387207,683.5948486,89.84388733,1
875.1295166,865.2596436,-777.3449707,687.5010986,89.84388733,1
850.454834,845.5198975,-777.3449707,687.5010986,89.84388733,1
847.164856,852.0997925,-777.3449707,687.5010986,89.84388733,1
840.5849609,845.5198975,-777.3449707,687.5010986,89.84388733,1
840.5849609,845.5198975,-773.4387207,683.5948486,85.93763733,1
840.5849609,845.5198975,-769.5324707,683.5948486,89.84388733,1
855.3897705,845.5198975,-769.5324707,683.5948486,89.84388733,1
835.6500244,845.5198975,-773.4387207,687.5010986,85.93763733,1
843.874939,852.0997925,-773.4387207,683.5948486,89.84388733,1
843.874939,847.164856,-777.3449707,687.5010986,89.84388733,1
842.2299194,857.034729,-777.3449707,687.5010986,85.93763733,1
860.324707,850.454834,-773.4387207,687.5010986,93.75014496,1
847.164856,853.744812,-773.4387207,683.5948486,89.84388733,1
824.1351318,840.5849609,-777.3449707,687.5010986,89.84388733,1
830.7150879,853.744812,-773.4387207,687.5010986,89.84388733,1
860.324707,870.1945801,-773.4387207,687.5010986,89.84388733,1
845.5198975,853.744812,-777.3449707,687.5010986,93.75014496,1
847.164856,847.164856,-777.3449707,683.5948486,89.84388733,1
860.324707,857.034729,-777.3449707,687.5010986,89.84388733,1
845.5198975,843.874939,-773.4387207,687.5010986,89.84388733,1
825.7801514,827.4251099,-777.3449707,683.5948486,89.84388733,1
825.7801514,827.4251099,-777.3449707,687.5010986,85.93763733,1
842.2299194,845.5198975,-777.3449707,687.5010986,89.84388733,1
853.744812,852.0997925,-777.3449707,687.5010986,85.93763733,1
861.9697266,861.9697266,-773.4387207,687.5010986,89.84388733,1
847.164856,838.9400024,-773.4387207,687.5010986,85.93763733,1
868.5496216,850.454834,-777.3449707,687.5010986,89.84388733,1
857.034729,858.6797485,-773.4387207,683.5948486,85.93763733,1
850.454834,855.3897705,-777.3449707,687.5010986,89.84388733,1
853.744812,847.164856,-777.3449707,687.5010986,89.84388733,1
838.9400024,848.8098755,-777.3449707,687.5010986,89.84388733,1
822.4901733,842.2299194,-773.4387207,687.5010986,93.75014496,1
824.1351318,840.5849609,-773.4387207,687.5010986,93.75014496,1
834.0050049,843.874939,-777.3449707,683.5948486,89.84388733,1
865.2596436,858.6797485,-773.4387207,687.5010986,89.84388733,1
855.3897705,866.9046631,-773.4387207,683.5948486,89.84388733,1
875.1295166,866.9046631,-773.4387207,683.5948486,89.84388733,1
855.3897705,853.744812,-777.3449707,687.5010986,89.84388733,1
868.5496216,865.2596436,-777.3449707,687.5010986,89.84388733,1
866.9046631,853.744812,-777.3449707,687.5010986,89.84388733,1
860.324707,840.5849609,-777.3449707,683.5948486,89.84388733,1
852.0997925,850.454834,-773.4387207,687.5010986,89.84388733,1
850.454834,860.324707,-773.4387207,687.5010986,89.84388733,1
861.9697266,868.5496216,-777.3449707,687.5010986,89.84388733,1
858.6797485,850.454834,-777.3449707,687.5010986,89.84388733,1
873.4845581,870.1945801,-773.4387207,687.5010986,89.84388733,1
871.8395996,875.1295166,-773.4387207,687.5010986,89.84388733,1
868.5496216,868.5496216,-773.4387207,687.5010986,89.84388733,1
845.5198975,848.8098755,-773.4387207,683.5948486,89.84388733,1
848.8098755,861.9697266,-773.4387207,687.5010986,89.84388733,1
843.874939,853.744812,-777.3449707,687.5010986,89.84388733,1
870.1945801,865.2596436,-773.4387207,683.5948486,93.75014496,1
857.034729,860.324707,-773.4387207,687.5010986,93.75014496,1
843.874939,835.6500244,-777.3449707,687.5010986,93.75014496,1
834.0050049,834.0050049,-773.4387207,683.5948486,89.84388733,1
822.4901733,835.6500244,-777.3449707,683.5948486,93.75014496,1
822.4901733,835.6500244,-777.3449707,687.5010986,89.84388733,1
834.0050049,837.2949829,-777.3449707,687.5010986,89.84388733,1
865.2596436,857.034729,-773.4387207,683.5948486,89.84388733,1
845.5198975,850.454834,-773.4387207,687.5010986,89.84388733,1
830.7150879,837.2949829,-777.3449707,687.5010986,93.75014496,1
820.8452148,837.2949829,-777.3449707,687.5010986,89.84388733,1
850.454834,858.6797485,-773.4387207,687.5010986,89.84388733,1
868.5496216,865.2596436,-773.4387207,683.5948486,89.84388733,1
837.2949829,843.874939,-777.3449707,687.5010986,89.84388733,1
837.2949829,843.874939,-773.4387207,675.7822876,89.84388733,1
847.164856,858.6797485,-773.4387207,675.7822876,89.84388733,1
852.0997925,845.5198975,-773.4387207,683.5948486,93.75014496,1
837.2949829,837.2949829,-777.3449707,687.5010986,89.84388733,1
845.5198975,860.324707,-777.3449707,683.5948486,89.84388733,1
847.164856,855.3897705,-777.3449707,683.5948486,89.84388733,1
838.9400024,837.2949829,-773.4387207,687.5010986,89.84388733,1
840.5849609,840.5849609,-773.4387207,687.5010986,93.75014496,1
819.2001953,835.6500244,-777.3449707,687.5010986,93.75014496,1
842.2299194,850.454834,-777.3449707,687.5010986,93.75014496,1
847.164856,847.164856,-773.4387207,683.5948486,89.84388733,1
847.164856,847.164856,-777.3449707,687.5010986,93.75014496,1
855.3897705,852.0997925,-773.4387207,675.7822876,89.84388733,1
855.3897705,852.0997925,-769.5324707,683.5948486,93.75014496,1
855.3897705,871.8395996,-773.4387207,683.5948486,93.75014496,1
855.3897705,871.8395996,-773.4387207,687.5010986,93.75014496,1
838.9400024,868.5496216,-773.4387207,687.5010986,93.75014496,1
824.1351318,847.164856,-777.3449707,687.5010986,89.84388733,1
842.2299194,857.034729,-777.3449707,683.5948486,89.84388733,1
853.744812,865.2596436,-773.4387207,687.5010986,89.84388733,1
858.6797485,866.9046631,-777.3449707,683.5948486,93.75014496,1
855.3897705,876.7745361,-777.3449707,687.5010986,93.75014496,1
835.6500244,847.164856,-773.4387207,687.5010986,93.75014496,1
850.454834,848.8098755,-777.3449707,683.5948486,89.84388733,1
848.8098755,852.0997925,-773.4387207,683.5948486,89.84388733,1
843.874939,857.034729,-773.4387207,679.6885376,89.84388733,1
835.6500244,838.9400024,-777.3449707,687.5010986,89.84388733,1
863.6146851,861.9697266,-777.3449707,683.5948486,89.84388733,1
873.4845581,865.2596436,-773.4387207,687.5010986,93.75014496,1
837.2949829,840.5849609,-773.4387207,687.5010986,89.84388733,1
842.2299194,843.874939,-773.4387207,687.5010986,93.75014496,1
842.2299194,850.454834,-777.3449707,683.5948486,93.75014496,1
829.0700684,843.874939,-773.4387207,683.5948486,89.84388733,1
857.034729,858.6797485,-773.4387207,683.5948486,89.84388733,1
848.8098755,860.324707,-777.3449707,683.5948486,93.75014496,1
827.4251099,838.9400024,-773.4387207,687.5010986,89.84388733,1
827.4251099,838.9400024,-773.4387207,683.5948486,89.84388733,1
845.5198975,852.0997925,-773.4387207,683.5948486,93.75014496,1
852.0997925,866.9046631,-777.3449707,683.5948486,93.75014496,1
842.2299194,847.164856,-777.3449707,687.5010986,89.84388733,1
858.6797485,868.5496216,-777.3449707,683.5948486,89.84388733,1
857.034729,868.5496216,-777.3449707,687.5010986,93.75014496,1
838.9400024,857.034729,-777.3449707,683.5948486,93.75014496,1
853.744812,855.3897705,-777.3449707,683.5948486,89.84388733,1
848.8098755,861.9697266,-777.3449707,683.5948486,93.75014496,1
848.8098755,861.9697266,-773.4387207,675.7822876,89.84388733,1
845.5198975,866.9046631,-777.3449707,687.5010986,93.75014496,1
845.5198975,848.8098755,-777.3449707,687.5010986,93.75014496,1
840.5849609,858.6797485,-773.4387207,683.5948486,93.75014496,1
837.2949829,853.744812,-773.4387207,683.5948486,93.75014496,1
842.2299194,855.3897705,-777.3449707,687.5010986,89.84388733,1
842.2299194,855.3897705,-773.4387207,687.5010986,93.75014496,1
827.4251099,855.3897705,-773.4387207,687.5010986,93.75014496,1
847.164856,863.6146851,-777.3449707,683.5948486,89.84388733,1
837.2949829,845.5198975,-777.3449707,683.5948486,93.75014496,1
850.454834,857.034729,-777.3449707,687.5010986,93.75014496,1
853.744812,863.6146851,-777.3449707,687.5010986,89.84388733,1
853.744812,863.6146851,-769.5324707,675.7822876,93.75014496,1
866.9046631,858.6797485,-773.4387207,687.5010986,93.75014496,1
866.9046631,858.6797485,-781.2512207,687.5010986,93.75014496,1
858.6797485,855.3897705,-781.2512207,687.5010986,93.75014496,1
857.034729,852.0997925,-773.4387207,683.5948486,89.84388733,1
850.454834,847.164856,-777.3449707,687.5010986,89.84388733,1
870.1945801,866.9046631,-777.3449707,687.5010986,93.75014496,1
832.3600464,838.9400024,-773.4387207,683.5948486,89.84388733,1
863.6146851,865.2596436,-773.4387207,683.5948486,89.84388733,1
855.3897705,870.1945801,-777.3449707,683.5948486,89.84388733,1
860.324707,852.0997925,-777.3449707,687.5010986,93.75014496,1
853.744812,861.9697266,-773.4387207,683.5948486,93.75014496,1
842.2299194,852.0997925,-773.4387207,683.5948486,93.75014496,1
852.0997925,855.3897705,-773.4387207,683.5948486,93.75014496,1
857.034729,861.9697266,-777.3449707,687.5010986,93.75014496,1
835.6500244,847.164856,-777.3449707,687.5010986,93.75014496,1
853.744812,866.9046631,-777.3449707,687.5010986,89.84388733,1
840.5849609,855.3897705,-777.3449707,687.5010986,93.75014496,1
840.5849609,853.744812,-777.3449707,687.5010986,93.75014496,1
865.2596436,871.8395996,-773.4387207,683.5948486,93.75014496,1
837.2949829,845.5198975,-773.4387207,687.5010986,89.84388733,1
852.0997925,852.0997925,-777.3449707,687.5010986,89.84388733,1
855.3897705,861.9697266,-777.3449707,683.5948486,93.75014496,1
835.6500244,848.8098755,-777.3449707,683.5948486,93.75014496,1
840.5849609,847.164856,-777.3449707,683.5948486,93.75014496,1
837.2949829,863.6146851,-777.3449707,683.5948486,93.75014496,1
850.454834,870.1945801,-777.3449707,683.5948486,93.75014496,1
829.0700684,853.744812,-773.4387207,683.5948486,93.75014496,1
820.8452148,848.8098755,-773.4387207,683.5948486,93.75014496,1
847.164856,861.9697266,-773.4387207,683.5948486,93.75014496,1
865.2596436,863.6146851,-777.3449707,683.5948486,93.75014496,1
845.5198975,848.8098755,-777.3449707,683.5948486,93.75014496,1
855.3897705,848.8098755,-777.3449707,683.5948486,93.75014496,1
850.454834,845.5198975,-777.3449707,687.5010986,93.75014496,1
843.874939,840.5849609,-773.4387207,687.5010986,93.75014496,1
840.5849609,838.9400024,-777.3449707,683.5948486,93.75014496,1
850.454834,852.0997925,-773.4387207,683.5948486,93.75014496,1
853.744812,860.324707,-777.3449707,687.5010986,93.75014496,1
827.4251099,848.8098755,-777.3449707,683.5948486,93.75014496,1
855.3897705,858.6797485,-781.2512207,687.5010986,89.84388733,1
840.5849609,853.744812,-773.4387207,675.7822876,93.75014496,1
830.7150879,855.3897705,-773.4387207,675.7822876,93.75014496,1
852.0997925,865.2596436,-773.4387207,687.5010986,93.75014496,1
852.0997925,865.2596436,-777.3449707,683.5948486,93.75014496,1
834.0050049,850.454834,-777.3449707,683.5948486,93.75014496,1
835.6500244,852.0997925,-773.4387207,683.5948486,93.75014496,1
835.6500244,852.0997925,-773.4387207,687.5010986,93.75014496,1
840.5849609,861.9697266,-777.3449707,687.5010986,93.75014496,1
837.2949829,861.9697266,-773.4387207,683.5948486,93.75014496,1
837.2949829,861.9697266,-777.3449707,687.5010986,89.84388733,1
835.6500244,847.164856,-777.3449707,687.5010986,89.84388733,1
858.6797485,855.3897705,-773.4387207,687.5010986,93.75014496,1
837.2949829,857.034729,-777.3449707,687.5010986,93.75014496,1
834.0050049,848.8098755,-777.3449707,687.5010986,93.75014496,1
848.8098755,863.6146851,-777.3449707,687.5010986,93.75014496,1
857.034729,857.034729,-777.3449707,687.5010986,97.65640259,1
837.2949829,850.454834,-777.3449707,687.5010986,93.75014496,1
843.874939,847.164856,-777.3449707,683.5948486,93.75014496,1
843.874939,860.324707,-773.4387207,675.7822876,93.75014496,1
827.4251099,843.874939,-773.4387207,683.5948486,93.75014496,1
847.164856,845.5198975,-777.3449707,687.5010986,93.75014496,1
870.1945801,861.9697266,-777.3449707,683.5948486,93.75014496,1
860.324707,861.9697266,-777.3449707,683.5948486,93.75014496,1
873.4845581,850.454834,-777.3449707,687.5010986,93.75014496,1
852.0997925,837.2949829,-777.3449707,687.5010986,93.75014496,1
857.034729,850.454834,-777.3449707,687.5010986,93.75014496,1
870.1945801,863.6146851,-777.3449707,683.5948486,97.65640259,1
855.3897705,852.0997925,-773.4387207,679.6885376,93.75014496,1
857.034729,860.324707,-773.4387207,679.6885376,93.75014496,1
861.9697266,860.324707,-773.4387207,679.6885376,93.75014496,1
840.5849609,858.6797485,-777.3449707,683.5948486,93.75014496,1
842.2299194,847.164856,-777.3449707,683.5948486,93.75014496,1
824.1351318,842.2299194,-777.3449707,683.5948486,93.75014496,1
843.874939,861.9697266,-777.3449707,683.5948486,89.84388733,1
843.874939,861.9697266,-773.4387207,683.5948486,93.75014496,1
855.3897705,840.5849609,-777.3449707,683.5948486,93.75014496,1
860.324707,860.324707,-777.3449707,683.5948486,93.75014496,1
825.7801514,848.8098755,-777.3449707,683.5948486,93.75014496,1
840.5849609,843.874939,-777.3449707,683.5948486,93.75014496,1
843.874939,857.034729,-773.4387207,683.5948486,93.75014496,1
843.874939,857.034729,-777.3449707,687.5010986,93.75014496,1
843.874939,857.034729,-777.3449707,683.5948486,93.75014496,1
837.2949829,847.164856,-777.3449707,683.5948486,97.65640259,1
837.2949829,847.164856,-781.2512207,691.4073486,89.84388733,1
860.324707,857.034729,-777.3449707,683.5948486,93.75014496,1
838.9400024,838.9400024,-773.4387207,683.5948486,93.75014496,1
832.3600464,835.6500244,-773.4387207,683.5948486,93.75014496,1
840.5849609,848.8098755,-773.4387207,683.5948486,93.75014496,1
866.9046631,858.6797485,-777.3449707,687.5010986,93.75014496,1
855.3897705,860.324707,-777.3449707,687.5010986,93.75014496,1
835.6500244,837.2949829,-777.3449707,683.5948486,93.75014496,1
850.454834,855.3897705,-773.4387207,683.5948486,93.75014496,1
837.2949829,847.164856,-781.2512207,687.5010986,93.75014496,1
845.5198975,840.5849609,-777.3449707,683.5948486,93.75014496,1
847.164856,853.744812,-777.3449707,683.5948486,93.75014496,1
843.874939,842.2299194,-777.3449707,683.5948486,93.75014496,1
847.164856,842.2299194,-777.3449707,683.5948486,93.75014496,1
835.6500244,842.2299194,-777.3449707,687.5010986,93.75014496,1
834.0050049,852.0997925,-777.3449707,687.5010986,93.75014496,1
827.4251099,845.5198975,-777.3449707,687.5010986,93.75014496,1
855.3897705,847.164856,-777.3449707,683.5948486,93.75014496,1
853.744812,860.324707,-773.4387207,683.5948486,93.75014496,1
832.3600464,850.454834,-777.3449707,683.5948486,93.75014496,1
834.0050049,838.9400024,-773.4387207,683.5948486,93.75014496,1
871.8395996,866.9046631,-773.4387207,683.5948486,93.75014496,1
865.2596436,866.9046631,-773.4387207,683.5948486,93.75014496,1
847.164856,855.3897705,-773.4387207,683.5948486,97.65640259,1
840.5849609,843.874939,-773.4387207,683.5948486,97.65640259,1
855.3897705,857.034729,-773.4387207,683.5948486,97.65640259,1
852.0997925,850.454834,-773.4387207,683.5948486,97.65640259,1
834.0050049,837.2949829,-777.3449707,683.5948486,93.75014496,1
857.034729,857.034729,-777.3449707,683.5948486,93.75014496,1
850.454834,857.034729,-777.3449707,683.5948486,93.75014496,1
865.2596436,860.324707,-777.3449707,683.5948486,93.75014496,1
868.5496216,873.4845581,-777.3449707,683.5948486,97.65640259,1
832.3600464,848.8098755,-777.3449707,683.5948486,97.65640259,1
860.324707,866.9046631,-777.3449707,683.5948486,93.75014496,1
847.164856,858.6797485,-773.4387207,683.5948486,97.65640259,1
838.9400024,843.874939,-773.4387207,683.5948486,97.65640259,1
830.7150879,847.164856,-773.4387207,679.6885376,97.65640259,1
850.454834,866.9046631,-773.4387207,679.6885376,97.65640259,1
847.164856,852.0997925,-773.4387207,679.6885376,97.65640259,1
860.324707,858.6797485,-777.3449707,683.5948486,97.65640259,1
845.5198975,847.164856,-777.3449707,683.5948486,93.75014496,1
868.5496216,860.324707,-777.3449707,683.5948486,93.75014496,1
845.5198975,861.9697266,-773.4387207,683.5948486,97.65640259,1
858.6797485,865.2596436,-777.3449707,687.5010986,93.75014496,1
858.6797485,865.2596436,-777.3449707,683.5948486,97.65640259,1
840.5849609,845.5198975,-777.3449707,683.5948486,97.65640259,1
863.6146851,848.8098755,-777.3449707,683.5948486,93.75014496,1
866.9046631,857.034729,-777.3449707,683.5948486,93.75014496,1
866.9046631,857.034729,-777.3449707,683.5948486,97.65640259,1
825.7801514,827.4251099,-777.3449707,683.5948486,97.65640259,1
837.2949829,837.2949829,-777.3449707,687.5010986,93.75014496,1
842.2299194,845.5198975,-777.3449707,683.5948486,93.75014496,1
825.7801514,840.5849609,-777.3449707,687.5010986,93.75014496,1
852.0997925,857.034729,-777.3449707,687.5010986,97.65640259,1
857.034729,863.6146851,-773.4387207,675.7822876,93.75014496,1
863.6146851,858.6797485,-777.3449707,683.5948486,93.75014496,1
847.164856,863.6146851,-777.3449707,687.5010986,93.75014496,1
843.874939,852.0997925,-777.3449707,683.5948486,97.65640259,1
858.6797485,863.6146851,-777.3449707,683.5948486,93.75014496,1
855.3897705,865.2596436,-773.4387207,683.5948486,93.75014496,1
832.3600464,847.164856,-777.3449707,683.5948486,93.75014496,1
825.7801514,843.874939,-777.3449707,687.5010986,97.65640259,1
850.454834,858.6797485,-777.3449707,683.5948486,93.75014496,1
837.2949829,843.874939,-777.3449707,683.5948486,93.75014496,1
845.5198975,865.2596436,-777.3449707,683.5948486,93.75014496,1
835.6500244,842.2299194,-777.3449707,683.5948486,97.65640259,1
850.454834,860.324707,-777.3449707,683.5948486,93.75014496,1
843.874939,861.9697266,-777.3449707,683.5948486,93.75014496,1
832.3600464,842.2299194,-777.3449707,683.5948486,93.75014496,1
843.874939,840.5849609,-781.2512207,687.5010986,93.75014496,1
842.2299194,838.9400024,-773.4387207,683.5948486,97.65640259,1
857.034729,848.8098755,-773.4387207,683.5948486,93.75014496,1
850.454834,840.5849609,-773.4387207,683.5948486,93.75014496,1
822.4901733,837.2949829,-777.3449707,687.5010986,97.65640259,1
822.4901733,837.2949829,-777.3449707,683.5948486,97.65640259,1
853.744812,860.324707,-777.3449707,683.5948486,97.65640259,1
848.8098755,853.744812,-773.4387207,683.5948486,93.75014496,1
847.164856,858.6797485,-777.3449707,683.5948486,93.75014496,1
